%OpenBCI Raw EEG Data
%Number of channels = 4
%Sample Rate = 200.0 Hz
%First Column = SampleIndex
%Last Column = Timestamp 
%Other Columns = EEG data in microvolts followed by Accel Data (in G) interleaved with Aux Data
0, 7.70, -158.99, 0.00, 0.00, 0.000, 0.000, 0.000, 14:48:35.745, 1627991315745
1, -41.50, -136.60, 0.00, 0.00, 0.000, 0.000, 0.000, 14:48:35.759, 1627991315759
2, -13.26, -38.04, 0.00, 0.00, 0.000, 0.000, 0.000, 14:48:35.759, 1627991315759
3, 61.35, -87.86, 0.00, 0.00, 0.000, 0.000, 0.000, 14:48:35.774, 1627991315774
4, 3.34, -163.11, 0.00, 0.00, 0.000, 0.000, 0.000, 14:48:35.774, 1627991315774
5, -42.20, -134.87, 0.00, 0.00, 0.000, 0.000, 0.000, 14:48:35.776, 1627991315776
6, -26.91, -39.38, 0.00, 0.00, 0.000, 0.000, 0.000, 14:48:35.776, 1627991315776
7, 60.45, -80.84, 0.00, 0.00, 0.000, 0.000, 0.000, 14:48:35.788, 1627991315788
8, 2.71, -157.18, 0.00, 0.00, 0.000, 0.000, 0.000, 14:48:35.788, 1627991315788
9, -50.08, -135.61, 0.00, 0.00, 0.000, 0.000, 0.000, 14:48:35.804, 1627991315804
10, -24.78, -43.98, 0.00, 0.00, 0.000, 0.000, 0.000, 14:48:35.804, 1627991315804
11, 56.87, -83.24, 0.00, 0.00, 0.000, 0.000, 0.000, 14:48:35.805, 1627991315805
12, 3.64, -155.03, 0.00, 0.00, 0.000, 0.000, 0.000, 14:48:35.805, 1627991315805
13, -45.36, -138.48, 0.00, 0.00, 0.000, 0.000, 0.000, 14:48:35.835, 1627991315835
14, -19.35, -40.65, 0.00, 0.00, 0.000, 0.000, 0.000, 14:48:35.835, 1627991315835
15, 67.30, -82.50, 0.00, 0.00, 0.000, 0.000, 0.000, 14:48:35.836, 1627991315836
16, 12.63, -147.91, 0.00, 0.00, 0.000, 0.000, 0.000, 14:48:35.836, 1627991315836
17, -36.15, -125.54, 0.00, 0.00, 0.000, 0.000, 0.000, 14:48:35.836, 1627991315836
18, -17.83, -27.00, 0.00, 0.00, 0.000, 0.000, 0.000, 14:48:35.836, 1627991315836
19, 62.09, -81.59, 0.00, 0.00, 0.000, 0.000, 0.000, 14:48:35.849, 1627991315849
20, 12.36, -147.07, 0.00, 0.00, 0.000, 0.000, 0.000, 14:48:35.849, 1627991315849
21, -40.68, -131.94, 0.00, 0.00, 0.000, 0.000, 0.000, 14:48:35.867, 1627991315867
22, -14.12, -29.23, 0.00, 0.00, 0.000, 0.000, 0.000, 14:48:35.867, 1627991315867
23, 67.33, -74.08, 0.00, 0.00, 0.000, 0.000, 0.000, 14:48:35.868, 1627991315868
24, 15.99, -147.63, 0.00, 0.00, 0.000, 0.000, 0.000, 14:48:35.868, 1627991315868
25, -44.52, -126.48, 0.00, 0.00, 0.000, 0.000, 0.000, 14:48:35.895, 1627991315895
26, -19.51, -38.19, 0.00, 0.00, 0.000, 0.000, 0.000, 14:48:35.895, 1627991315895
27, 66.12, -80.33, 0.00, 0.00, 0.000, 0.000, 0.000, 14:48:35.896, 1627991315896
28, 18.26, -149.55, 0.00, 0.00, 0.000, 0.000, 0.000, 14:48:35.896, 1627991315896
29, -40.38, -130.04, 0.00, 0.00, 0.000, 0.000, 0.000, 14:48:35.897, 1627991315897
30, -17.52, -34.33, 0.00, 0.00, 0.000, 0.000, 0.000, 14:48:35.897, 1627991315897
31, 68.53, -84.41, 0.00, 0.00, 0.000, 0.000, 0.000, 14:48:35.912, 1627991315912
32, 16.80, -147.96, 0.00, 0.00, 0.000, 0.000, 0.000, 14:48:35.912, 1627991315912
33, -36.76, -129.43, 0.00, 0.00, 0.000, 0.000, 0.000, 14:48:35.925, 1627991315925
34, -16.23, -36.46, 0.00, 0.00, 0.000, 0.000, 0.000, 14:48:35.925, 1627991315925
35, 62.55, -80.21, 0.00, 0.00, 0.000, 0.000, 0.000, 14:48:35.926, 1627991315926
36, 22.85, -142.46, 0.00, 0.00, 0.000, 0.000, 0.000, 14:48:35.926, 1627991315926
37, -35.11, -118.48, 0.00, 0.00, 0.000, 0.000, 0.000, 14:48:35.939, 1627991315939
38, -14.10, -29.89, 0.00, 0.00, 0.000, 0.000, 0.000, 14:48:35.939, 1627991315939
39, 81.32, -61.21, 0.00, 0.00, 0.000, 0.000, 0.000, 14:48:35.954, 1627991315954
40, 28.75, -142.34, 0.00, 0.00, 0.000, 0.000, 0.000, 14:48:35.954, 1627991315954
41, -38.27, -125.46, 0.00, 0.00, 0.000, 0.000, 0.000, 14:48:35.956, 1627991315956
42, -24.71, -27.93, 0.00, 0.00, 0.000, 0.000, 0.000, 14:48:35.956, 1627991315956
43, 69.45, -67.72, 0.00, 0.00, 0.000, 0.000, 0.000, 14:48:35.969, 1627991315969
44, 20.70, -138.60, 0.00, 0.00, 0.000, 0.000, 0.000, 14:48:35.969, 1627991315969
45, -31.70, -122.44, 0.00, 0.00, 0.000, 0.000, 0.000, 14:48:35.984, 1627991315984
46, -16.48, -27.09, 0.00, 0.00, 0.000, 0.000, 0.000, 14:48:35.984, 1627991315984
47, 68.70, -69.16, 0.00, 0.00, 0.000, 0.000, 0.000, 14:48:35.985, 1627991315985
48, 23.34, -138.93, 0.00, 0.00, 0.000, 0.000, 0.000, 14:48:35.985, 1627991315985
49, -28.08, -117.89, 0.00, 0.00, 0.000, 0.000, 0.000, 14:48:35.999, 1627991315999
50, -13.36, -13.96, 0.00, 0.00, 0.000, 0.000, 0.000, 14:48:35.999, 1627991315999
51, 71.78, -54.14, 0.00, 0.00, 0.000, 0.000, 0.000, 14:48:36.014, 1627991316014
52, 22.59, -130.84, 0.00, 0.00, 0.000, 0.000, 0.000, 14:48:36.014, 1627991316014
53, -24.83, -104.13, 0.00, 0.00, 0.000, 0.000, 0.000, 14:48:36.014, 1627991316014
54, -10.25, -9.20, 0.00, 0.00, 0.000, 0.000, 0.000, 14:48:36.014, 1627991316014
55, 75.82, -49.32, 0.00, 0.00, 0.000, 0.000, 0.000, 14:48:36.028, 1627991316028
56, 32.48, -127.74, 0.00, 0.00, 0.000, 0.000, 0.000, 14:48:36.028, 1627991316028
57, -22.63, -110.59, 0.00, 0.00, 0.000, 0.000, 0.000, 14:48:36.046, 1627991316046
58, -11.79, -21.85, 0.00, 0.00, 0.000, 0.000, 0.000, 14:48:36.046, 1627991316046
59, 73.68, -58.90, 0.00, 0.00, 0.000, 0.000, 0.000, 14:48:36.048, 1627991316048
60, 21.94, -130.32, 0.00, 0.00, 0.000, 0.000, 0.000, 14:48:36.048, 1627991316048
61, -33.80, -112.47, 0.00, 0.00, 0.000, 0.000, 0.000, 14:48:36.058, 1627991316058
62, -9.54, -11.91, 0.00, 0.00, 0.000, 0.000, 0.000, 14:48:36.058, 1627991316058
63, 88.86, -40.77, 0.00, 0.00, 0.000, 0.000, 0.000, 14:48:36.074, 1627991316074
64, 44.98, -120.93, 0.00, 0.00, 0.000, 0.000, 0.000, 14:48:36.074, 1627991316074
65, -14.23, -102.56, 0.00, 0.00, 0.000, 0.000, 0.000, 14:48:36.076, 1627991316076
66, 1.11, 6.80, 0.00, 0.00, 0.000, 0.000, 0.000, 14:48:36.076, 1627991316076
67, 89.86, -31.24, 0.00, 0.00, 0.000, 0.000, 0.000, 14:48:36.090, 1627991316090
68, 44.80, -111.12, 0.00, 0.00, 0.000, 0.000, 0.000, 14:48:36.090, 1627991316090
69, -13.15, -96.76, 0.00, 0.00, 0.000, 0.000, 0.000, 14:48:36.104, 1627991316104
70, -3.22, 7.37, 0.00, 0.00, 0.000, 0.000, 0.000, 14:48:36.104, 1627991316104
71, 89.70, -27.34, 0.00, 0.00, 0.000, 0.000, 0.000, 14:48:36.105, 1627991316105
72, 43.76, -109.29, 0.00, 0.00, 0.000, 0.000, 0.000, 14:48:36.105, 1627991316105
73, -12.80, -102.45, 0.00, 0.00, 0.000, 0.000, 0.000, 14:48:36.118, 1627991316118
74, -3.02, -6.47, 0.00, 0.00, 0.000, 0.000, 0.000, 14:48:36.118, 1627991316118
75, 67.30, -52.15, 0.00, 0.00, 0.000, 0.000, 0.000, 14:48:36.137, 1627991316137
76, 50.57, -82.78, 0.00, 0.00, 0.000, 0.000, 0.000, 14:48:36.137, 1627991316137
77, -10.57, -88.50, 0.00, 0.00, 0.000, 0.000, 0.000, 14:48:36.138, 1627991316138
78, -5.89, 28.97, 0.00, 0.00, 0.000, 0.000, 0.000, 14:48:36.138, 1627991316138
79, 88.28, 4.44, 0.00, 0.00, 0.000, 0.000, 0.000, 14:48:36.149, 1627991316149
80, 50.70, -75.21, 0.00, 0.00, 0.000, 0.000, 0.000, 14:48:36.149, 1627991316149
81, -4.27, -50.51, 0.00, 0.00, 0.000, 0.000, 0.000, 14:48:36.180, 1627991316180
82, -9.25, 53.64, 0.00, 0.00, 0.000, 0.000, 0.000, 14:48:36.180, 1627991316180
83, 93.55, 32.61, 0.00, 0.00, 0.000, 0.000, 0.000, 14:48:36.181, 1627991316181
84, 59.82, -43.70, 0.00, 0.00, 0.000, 0.000, 0.000, 14:48:36.181, 1627991316181
85, -9.42, -48.59, 0.00, 0.00, 0.000, 0.000, 0.000, 14:48:36.184, 1627991316184
86, -19.97, 59.37, 0.00, 0.00, 0.000, 0.000, 0.000, 14:48:36.184, 1627991316184
87, 90.46, 33.65, 0.00, 0.00, 0.000, 0.000, 0.000, 14:48:36.194, 1627991316194
88, 57.07, -59.61, 0.00, 0.00, 0.000, 0.000, 0.000, 14:48:36.194, 1627991316194
89, -11.43, -60.50, 0.00, 0.00, 0.000, 0.000, 0.000, 14:48:36.196, 1627991316196
90, -22.13, 39.95, 0.00, 0.00, 0.000, 0.000, 0.000, 14:48:36.196, 1627991316196
91, 80.47, 9.14, 0.00, 0.00, 0.000, 0.000, 0.000, 14:48:36.225, 1627991316225
92, 49.11, -67.73, 0.00, 0.00, 0.000, 0.000, 0.000, 14:48:36.225, 1627991316225
93, -12.80, -66.31, 0.00, 0.00, 0.000, 0.000, 0.000, 14:48:36.227, 1627991316227
94, -26.38, 33.27, 0.00, 0.00, 0.000, 0.000, 0.000, 14:48:36.227, 1627991316227
95, 87.61, 9.32, 0.00, 0.00, 0.000, 0.000, 0.000, 14:48:36.227, 1627991316227
96, 50.75, -82.39, 0.00, 0.00, 0.000, 0.000, 0.000, 14:48:36.227, 1627991316227
97, -14.89, -75.50, 0.00, 0.00, 0.000, 0.000, 0.000, 14:48:36.239, 1627991316239
98, -15.68, 41.08, 0.00, 0.00, 0.000, 0.000, 0.000, 14:48:36.239, 1627991316239
99, 97.88, 7.06, 0.00, 0.00, 0.000, 0.000, 0.000, 14:48:36.254, 1627991316254
100, 65.11, -71.71, 0.00, 0.00, 0.000, 0.000, 0.000, 14:48:36.254, 1627991316254
101, -15.08, -71.70, 0.00, 0.00, 0.000, 0.000, 0.000, 14:48:36.255, 1627991316255
102, -32.88, 25.05, 0.00, 0.00, 0.000, 0.000, 0.000, 14:48:36.255, 1627991316255
103, 81.07, -4.42, 0.00, 0.00, 0.000, 0.000, 0.000, 14:48:36.269, 1627991316269
104, 53.92, -79.18, 0.00, 0.00, 0.000, 0.000, 0.000, 14:48:36.269, 1627991316269
105, -20.31, -76.59, 0.00, 0.00, 0.000, 0.000, 0.000, 14:48:36.284, 1627991316284
106, -26.98, 18.83, 0.00, 0.00, 0.000, 0.000, 0.000, 14:48:36.284, 1627991316284
107, 89.65, -3.61, 0.00, 0.00, 0.000, 0.000, 0.000, 14:48:36.286, 1627991316286
108, 56.23, -75.99, 0.00, 0.00, 0.000, 0.000, 0.000, 14:48:36.286, 1627991316286
109, -7.52, -63.17, 0.00, 0.00, 0.000, 0.000, 0.000, 14:48:36.299, 1627991316299
110, -26.25, 28.05, 0.00, 0.00, 0.000, 0.000, 0.000, 14:48:36.299, 1627991316299
111, 106.76, 8.20, 0.00, 0.00, 0.000, 0.000, 0.000, 14:48:36.314, 1627991316314
112, 69.86, -67.39, 0.00, 0.00, 0.000, 0.000, 0.000, 14:48:36.314, 1627991316314
113, -12.04, -66.95, 0.00, 0.00, 0.000, 0.000, 0.000, 14:48:36.315, 1627991316315
114, -29.54, 27.34, 0.00, 0.00, 0.000, 0.000, 0.000, 14:48:36.315, 1627991316315
115, 98.40, -5.64, 0.00, 0.00, 0.000, 0.000, 0.000, 14:48:36.349, 1627991316349
116, 63.22, -78.32, 0.00, 0.00, 0.000, 0.000, 0.000, 14:48:36.349, 1627991316349
117, 1.47, -67.02, 0.00, 0.00, 0.000, 0.000, 0.000, 14:48:36.352, 1627991316352
118, -17.61, 34.24, 0.00, 0.00, 0.000, 0.000, 0.000, 14:48:36.352, 1627991316352
119, 107.27, 12.03, 0.00, 0.00, 0.000, 0.000, 0.000, 14:48:36.352, 1627991316352
120, 97.93, -54.55, 0.00, 0.00, 0.000, 0.000, 0.000, 14:48:36.352, 1627991316352
121, 22.41, -45.17, 0.00, 0.00, 0.000, 0.000, 0.000, 14:48:36.359, 1627991316359
122, -8.25, 40.24, 0.00, 0.00, 0.000, 0.000, 0.000, 14:48:36.359, 1627991316359
123, 122.78, 27.81, 0.00, 0.00, 0.000, 0.000, 0.000, 14:48:36.375, 1627991316375
124, 96.11, -53.84, 0.00, 0.00, 0.000, 0.000, 0.000, 14:48:36.375, 1627991316375
125, 15.62, -56.26, 0.00, 0.00, 0.000, 0.000, 0.000, 14:48:36.376, 1627991316376
126, -4.38, 54.14, 0.00, 0.00, 0.000, 0.000, 0.000, 14:48:36.376, 1627991316376
127, 127.00, 31.00, 0.00, 0.00, 0.000, 0.000, 0.000, 14:48:36.388, 1627991316388
128, 101.92, -62.07, 0.00, 0.00, 0.000, 0.000, 0.000, 14:48:36.388, 1627991316388
129, 16.70, -63.71, 0.00, 0.00, 0.000, 0.000, 0.000, 14:48:36.420, 1627991316420
130, -0.03, 50.86, 0.00, 0.00, 0.000, 0.000, 0.000, 14:48:36.420, 1627991316420
131, 116.87, 21.61, 0.00, 0.00, 0.000, 0.000, 0.000, 14:48:36.424, 1627991316424
132, 80.81, -69.85, 0.00, 0.00, 0.000, 0.000, 0.000, 14:48:36.424, 1627991316424
133, 35.19, -38.56, 0.00, 0.00, 0.000, 0.000, 0.000, 14:48:36.427, 1627991316427
134, -8.51, 49.77, 0.00, 0.00, 0.000, 0.000, 0.000, 14:48:36.427, 1627991316427
135, 134.69, 31.00, 0.00, 0.00, 0.000, 0.000, 0.000, 14:48:36.450, 1627991316450
136, 104.82, -56.57, 0.00, 0.00, 0.000, 0.000, 0.000, 14:48:36.450, 1627991316450
137, 26.10, -57.23, 0.00, 0.00, 0.000, 0.000, 0.000, 14:48:36.450, 1627991316450
138, -5.42, 46.38, 0.00, 0.00, 0.000, 0.000, 0.000, 14:48:36.450, 1627991316450
139, 129.38, 28.41, 0.00, 0.00, 0.000, 0.000, 0.000, 14:48:36.451, 1627991316451
140, 101.60, -64.82, 0.00, 0.00, 0.000, 0.000, 0.000, 14:48:36.451, 1627991316451
141, 18.16, -58.33, 0.00, 0.00, 0.000, 0.000, 0.000, 14:48:36.464, 1627991316464
142, -10.31, 45.02, 0.00, 0.00, 0.000, 0.000, 0.000, 14:48:36.464, 1627991316464
143, 125.06, 25.38, 0.00, 0.00, 0.000, 0.000, 0.000, 14:48:36.465, 1627991316465
144, 94.74, -66.58, 0.00, 0.00, 0.000, 0.000, 0.000, 14:48:36.465, 1627991316465
145, 13.93, -62.39, 0.00, 0.00, 0.000, 0.000, 0.000, 14:48:36.479, 1627991316479
146, -10.60, 47.32, 0.00, 0.00, 0.000, 0.000, 0.000, 14:48:36.479, 1627991316479
147, 117.54, 22.40, 0.00, 0.00, 0.000, 0.000, 0.000, 14:48:36.494, 1627991316494
148, 91.54, -70.47, 0.00, 0.00, 0.000, 0.000, 0.000, 14:48:36.494, 1627991316494
149, 14.54, -76.76, 0.00, 0.00, 0.000, 0.000, 0.000, 14:48:36.495, 1627991316495
150, -22.85, 27.47, 0.00, 0.00, 0.000, 0.000, 0.000, 14:48:36.495, 1627991316495
151, 106.52, 2.01, 0.00, 0.00, 0.000, 0.000, 0.000, 14:48:36.509, 1627991316509
152, 91.09, -71.20, 0.00, 0.00, 0.000, 0.000, 0.000, 14:48:36.509, 1627991316509
153, 6.67, -73.61, 0.00, 0.00, 0.000, 0.000, 0.000, 14:48:36.527, 1627991316527
154, -31.52, 25.60, 0.00, 0.00, 0.000, 0.000, 0.000, 14:48:36.527, 1627991316527
155, 111.67, 11.43, 0.00, 0.00, 0.000, 0.000, 0.000, 14:48:36.528, 1627991316528
156, 88.56, -72.20, 0.00, 0.00, 0.000, 0.000, 0.000, 14:48:36.528, 1627991316528
157, 5.95, -81.12, 0.00, 0.00, 0.000, 0.000, 0.000, 14:48:36.538, 1627991316538
158, -38.50, 28.52, 0.00, 0.00, 0.000, 0.000, 0.000, 14:48:36.538, 1627991316538
159, 106.15, 8.31, 0.00, 0.00, 0.000, 0.000, 0.000, 14:48:36.555, 1627991316555
160, 92.32, -86.24, 0.00, 0.00, 0.000, 0.000, 0.000, 14:48:36.555, 1627991316555
161, 9.41, -81.52, 0.00, 0.00, 0.000, 0.000, 0.000, 14:48:36.556, 1627991316556
162, -26.19, 22.66, 0.00, 0.00, 0.000, 0.000, 0.000, 14:48:36.556, 1627991316556
163, 118.71, -0.03, 0.00, 0.00, 0.000, 0.000, 0.000, 14:48:36.569, 1627991316569
164, 89.15, -92.30, 0.00, 0.00, 0.000, 0.000, 0.000, 14:48:36.569, 1627991316569
165, 5.70, -88.28, 0.00, 0.00, 0.000, 0.000, 0.000, 14:48:36.584, 1627991316584
166, -33.27, 16.45, 0.00, 0.00, 0.000, 0.000, 0.000, 14:48:36.584, 1627991316584
167, 116.48, 5.28, 0.00, 0.00, 0.000, 0.000, 0.000, 14:48:36.585, 1627991316585
168, 83.63, -96.96, 0.00, 0.00, 0.000, 0.000, 0.000, 14:48:36.585, 1627991316585
169, 4.10, -88.47, 0.00, 0.00, 0.000, 0.000, 0.000, 14:48:36.599, 1627991316599
170, -37.49, 22.15, 0.00, 0.00, 0.000, 0.000, 0.000, 14:48:36.599, 1627991316599
171, 106.73, 0.75, 0.00, 0.00, 0.000, 0.000, 0.000, 14:48:36.615, 1627991316615
172, 88.91, -88.27, 0.00, 0.00, 0.000, 0.000, 0.000, 14:48:36.615, 1627991316615
173, -1.33, -93.16, 0.00, 0.00, 0.000, 0.000, 0.000, 14:48:36.616, 1627991316616
174, -31.56, 28.38, 0.00, 0.00, 0.000, 0.000, 0.000, 14:48:36.616, 1627991316616
175, 108.12, 1.01, 0.00, 0.00, 0.000, 0.000, 0.000, 14:48:36.629, 1627991316629
176, 84.91, -105.45, 0.00, 0.00, 0.000, 0.000, 0.000, 14:48:36.629, 1627991316629
177, 1.32, -99.92, 0.00, 0.00, 0.000, 0.000, 0.000, 14:48:36.644, 1627991316644
178, -22.19, 34.01, 0.00, 0.00, 0.000, 0.000, 0.000, 14:48:36.644, 1627991316644
179, 103.37, -4.41, 0.00, 0.00, 0.000, 0.000, 0.000, 14:48:36.645, 1627991316645
180, 79.22, -102.30, 0.00, 0.00, 0.000, 0.000, 0.000, 14:48:36.645, 1627991316645
181, -5.04, -101.29, 0.00, 0.00, 0.000, 0.000, 0.000, 14:48:36.670, 1627991316670
182, -22.73, 35.80, 0.00, 0.00, 0.000, 0.000, 0.000, 14:48:36.670, 1627991316670
183, 111.60, -2.25, 0.00, 0.00, 0.000, 0.000, 0.000, 14:48:36.675, 1627991316675
184, 72.10, -109.05, 0.00, 0.00, 0.000, 0.000, 0.000, 14:48:36.675, 1627991316675
185, -4.47, -101.64, 0.00, 0.00, 0.000, 0.000, 0.000, 14:48:36.677, 1627991316677
186, -21.66, 31.90, 0.00, 0.00, 0.000, 0.000, 0.000, 14:48:36.677, 1627991316677
187, 102.76, -2.92, 0.00, 0.00, 0.000, 0.000, 0.000, 14:48:36.689, 1627991316689
188, 74.18, -103.43, 0.00, 0.00, 0.000, 0.000, 0.000, 14:48:36.689, 1627991316689
189, -3.50, -97.49, 0.00, 0.00, 0.000, 0.000, 0.000, 14:48:36.705, 1627991316705
190, -17.70, 40.38, 0.00, 0.00, 0.000, 0.000, 0.000, 14:48:36.705, 1627991316705
191, 111.36, 6.73, 0.00, 0.00, 0.000, 0.000, 0.000, 14:48:36.706, 1627991316706
192, 80.08, -88.94, 0.00, 0.00, 0.000, 0.000, 0.000, 14:48:36.706, 1627991316706
193, 4.83, -96.00, 0.00, 0.00, 0.000, 0.000, 0.000, 14:48:36.719, 1627991316719
194, -18.99, 34.32, 0.00, 0.00, 0.000, 0.000, 0.000, 14:48:36.719, 1627991316719
195, 103.15, -3.89, 0.00, 0.00, 0.000, 0.000, 0.000, 14:48:36.734, 1627991316734
196, 77.80, -105.10, 0.00, 0.00, 0.000, 0.000, 0.000, 14:48:36.734, 1627991316734
197, -5.75, -98.90, 0.00, 0.00, 0.000, 0.000, 0.000, 14:48:36.735, 1627991316735
198, -24.14, 21.38, 0.00, 0.00, 0.000, 0.000, 0.000, 14:48:36.735, 1627991316735
199, 108.27, -3.66, 0.00, 0.00, 0.000, 0.000, 0.000, 14:48:36.749, 1627991316749
200, 84.23, -102.73, 0.00, 0.00, 0.000, 0.000, 0.000, 14:48:36.749, 1627991316749
0, -10.32, -107.97, 0.00, 0.00, 0.000, 0.000, 0.000, 14:48:36.750, 1627991316750
1, -35.10, 16.35, 0.00, 0.00, 0.000, 0.000, 0.000, 14:48:36.779, 1627991316779
2, 111.50, -0.85, 0.00, 0.00, 0.000, 0.000, 0.000, 14:48:36.779, 1627991316779
3, 81.90, -95.03, 0.00, 0.00, 0.000, 0.000, 0.000, 14:48:36.780, 1627991316780
4, 1.60, -98.74, 0.00, 0.00, 0.000, 0.000, 0.000, 14:48:36.780, 1627991316780
5, -18.61, 32.10, 0.00, 0.00, 0.000, 0.000, 0.000, 14:48:36.781, 1627991316781
6, 113.08, 9.63, 0.00, 0.00, 0.000, 0.000, 0.000, 14:48:36.781, 1627991316781
7, 51.01, -125.56, 0.00, 0.00, 0.000, 0.000, 0.000, 14:48:36.795, 1627991316795
8, 2.30, -115.16, 0.00, 0.00, 0.000, 0.000, 0.000, 14:48:36.795, 1627991316795
9, -10.81, 18.32, 0.00, 0.00, 0.000, 0.000, 0.000, 14:48:36.810, 1627991316810
10, 124.34, -12.58, 0.00, 0.00, 0.000, 0.000, 0.000, 14:48:36.810, 1627991316810
11, 89.34, -125.57, 0.00, 0.00, 0.000, 0.000, 0.000, 14:48:36.812, 1627991316812
12, 15.25, -116.26, 0.00, 0.00, 0.000, 0.000, 0.000, 14:48:36.812, 1627991316812
13, -9.74, 2.23, 0.00, 0.00, 0.000, 0.000, 0.000, 14:48:36.823, 1627991316823
14, 130.49, -15.81, 0.00, 0.00, 0.000, 0.000, 0.000, 14:48:36.823, 1627991316823
15, 97.17, -123.16, 0.00, 0.00, 0.000, 0.000, 0.000, 14:48:36.839, 1627991316839
16, 9.30, -135.48, 0.00, 0.00, 0.000, 0.000, 0.000, 14:48:36.839, 1627991316839
17, -6.74, -15.26, 0.00, 0.00, 0.000, 0.000, 0.000, 14:48:36.843, 1627991316843
18, 129.89, -38.97, 0.00, 0.00, 0.000, 0.000, 0.000, 14:48:36.843, 1627991316843
19, 99.36, -148.40, 0.00, 0.00, 0.000, 0.000, 0.000, 14:48:36.853, 1627991316853
20, 15.77, -156.47, 0.00, 0.00, 0.000, 0.000, 0.000, 14:48:36.853, 1627991316853
21, -13.63, -27.98, 0.00, 0.00, 0.000, 0.000, 0.000, 14:48:36.869, 1627991316869
22, 122.25, -52.78, 0.00, 0.00, 0.000, 0.000, 0.000, 14:48:36.869, 1627991316869
23, 90.66, -158.47, 0.00, 0.00, 0.000, 0.000, 0.000, 14:48:36.870, 1627991316870
24, 15.27, -139.69, 0.00, 0.00, 0.000, 0.000, 0.000, 14:48:36.870, 1627991316870
25, -19.12, -29.94, 0.00, 0.00, 0.000, 0.000, 0.000, 14:48:36.902, 1627991316902
26, 123.95, -52.67, 0.00, 0.00, 0.000, 0.000, 0.000, 14:48:36.902, 1627991316902
27, 88.88, -156.31, 0.00, 0.00, 0.000, 0.000, 0.000, 14:48:36.903, 1627991316903
28, -1.00, -154.59, 0.00, 0.00, 0.000, 0.000, 0.000, 14:48:36.903, 1627991316903
29, -24.30, -25.56, 0.00, 0.00, 0.000, 0.000, 0.000, 14:48:36.903, 1627991316903
30, 112.39, -48.23, 0.00, 0.00, 0.000, 0.000, 0.000, 14:48:36.903, 1627991316903
31, 86.55, -154.66, 0.00, 0.00, 0.000, 0.000, 0.000, 14:48:36.914, 1627991316914
32, -5.23, -157.78, 0.00, 0.00, 0.000, 0.000, 0.000, 14:48:36.914, 1627991316914
33, -23.31, -26.43, 0.00, 0.00, 0.000, 0.000, 0.000, 14:48:36.929, 1627991316929
34, 109.59, -49.66, 0.00, 0.00, 0.000, 0.000, 0.000, 14:48:36.929, 1627991316929
35, 82.94, -156.30, 0.00, 0.00, 0.000, 0.000, 0.000, 14:48:36.930, 1627991316930
36, -6.64, -150.96, 0.00, 0.00, 0.000, 0.000, 0.000, 14:48:36.930, 1627991316930
37, -28.66, -22.40, 0.00, 0.00, 0.000, 0.000, 0.000, 14:48:36.945, 1627991316945
38, 103.90, -45.85, 0.00, 0.00, 0.000, 0.000, 0.000, 14:48:36.945, 1627991316945
39, 74.26, -152.15, 0.00, 0.00, 0.000, 0.000, 0.000, 14:48:36.960, 1627991316960
40, -11.31, -156.09, 0.00, 0.00, 0.000, 0.000, 0.000, 14:48:36.960, 1627991316960
41, -45.23, -23.31, 0.00, 0.00, 0.000, 0.000, 0.000, 14:48:36.971, 1627991316971
42, 99.07, -37.06, 0.00, 0.00, 0.000, 0.000, 0.000, 14:48:36.971, 1627991316971
43, 63.49, -158.09, 0.00, 0.00, 0.000, 0.000, 0.000, 14:48:36.974, 1627991316974
44, -18.29, -154.53, 0.00, 0.00, 0.000, 0.000, 0.000, 14:48:36.974, 1627991316974
45, -37.72, -3.84, 0.00, 0.00, 0.000, 0.000, 0.000, 14:48:36.989, 1627991316989
46, 101.80, -38.83, 0.00, 0.00, 0.000, 0.000, 0.000, 14:48:36.989, 1627991316989
47, 76.10, -137.59, 0.00, 0.00, 0.000, 0.000, 0.000, 14:48:36.990, 1627991316990
48, -14.59, -146.34, 0.00, 0.00, 0.000, 0.000, 0.000, 14:48:36.990, 1627991316990
49, -41.72, -9.98, 0.00, 0.00, 0.000, 0.000, 0.000, 14:48:37.004, 1627991317004
50, 93.45, -31.80, 0.00, 0.00, 0.000, 0.000, 0.000, 14:48:37.004, 1627991317004
51, 69.39, -140.05, 0.00, 0.00, 0.000, 0.000, 0.000, 14:48:37.020, 1627991317020
52, -14.36, -141.23, 0.00, 0.00, 0.000, 0.000, 0.000, 14:48:37.020, 1627991317020
53, -45.82, -9.87, 0.00, 0.00, 0.000, 0.000, 0.000, 14:48:37.021, 1627991317021
54, 101.47, -26.07, 0.00, 0.00, 0.000, 0.000, 0.000, 14:48:37.021, 1627991317021
55, 72.03, -127.14, 0.00, 0.00, 0.000, 0.000, 0.000, 14:48:37.034, 1627991317034
56, -16.19, -140.29, 0.00, 0.00, 0.000, 0.000, 0.000, 14:48:37.034, 1627991317034
57, -44.41, -7.38, 0.00, 0.00, 0.000, 0.000, 0.000, 14:48:37.050, 1627991317050
58, 102.97, -33.27, 0.00, 0.00, 0.000, 0.000, 0.000, 14:48:37.050, 1627991317050
59, 74.87, -138.29, 0.00, 0.00, 0.000, 0.000, 0.000, 14:48:37.051, 1627991317051
60, -12.64, -145.64, 0.00, 0.00, 0.000, 0.000, 0.000, 14:48:37.051, 1627991317051
61, -49.68, -19.34, 0.00, 0.00, 0.000, 0.000, 0.000, 14:48:37.064, 1627991317064
62, 95.46, -32.31, 0.00, 0.00, 0.000, 0.000, 0.000, 14:48:37.064, 1627991317064
63, 68.00, -134.72, 0.00, 0.00, 0.000, 0.000, 0.000, 14:48:37.080, 1627991317080
64, -33.87, -149.46, 0.00, 0.00, 0.000, 0.000, 0.000, 14:48:37.080, 1627991317080
65, -43.73, -5.08, 0.00, 0.00, 0.000, 0.000, 0.000, 14:48:37.081, 1627991317081
66, 95.32, -26.71, 0.00, 0.00, 0.000, 0.000, 0.000, 14:48:37.081, 1627991317081
67, 65.38, -135.25, 0.00, 0.00, 0.000, 0.000, 0.000, 14:48:37.094, 1627991317094
68, -13.50, -142.61, 0.00, 0.00, 0.000, 0.000, 0.000, 14:48:37.094, 1627991317094
69, -47.43, -11.61, 0.00, 0.00, 0.000, 0.000, 0.000, 14:48:37.109, 1627991317109
70, 94.18, -29.98, 0.00, 0.00, 0.000, 0.000, 0.000, 14:48:37.109, 1627991317109
71, 70.03, -139.23, 0.00, 0.00, 0.000, 0.000, 0.000, 14:48:37.113, 1627991317113
72, -14.39, -136.12, 0.00, 0.00, 0.000, 0.000, 0.000, 14:48:37.113, 1627991317113
73, -52.94, -16.90, 0.00, 0.00, 0.000, 0.000, 0.000, 14:48:37.123, 1627991317123
74, 97.70, -26.93, 0.00, 0.00, 0.000, 0.000, 0.000, 14:48:37.123, 1627991317123
75, 74.10, -140.80, 0.00, 0.00, 0.000, 0.000, 0.000, 14:48:37.139, 1627991317139
76, -14.83, -139.30, 0.00, 0.00, 0.000, 0.000, 0.000, 14:48:37.139, 1627991317139
77, -48.46, -14.98, 0.00, 0.00, 0.000, 0.000, 0.000, 14:48:37.139, 1627991317139
78, 91.68, -23.01, 0.00, 0.00, 0.000, 0.000, 0.000, 14:48:37.139, 1627991317139
79, 70.58, -136.36, 0.00, 0.00, 0.000, 0.000, 0.000, 14:48:37.153, 1627991317153
80, -14.77, -140.79, 0.00, 0.00, 0.000, 0.000, 0.000, 14:48:37.153, 1627991317153
81, -45.91, -12.52, 0.00, 0.00, 0.000, 0.000, 0.000, 14:48:37.173, 1627991317173
82, 90.62, -30.67, 0.00, 0.00, 0.000, 0.000, 0.000, 14:48:37.173, 1627991317173
83, 69.62, -134.85, 0.00, 0.00, 0.000, 0.000, 0.000, 14:48:37.175, 1627991317175
84, -20.31, -137.89, 0.00, 0.00, 0.000, 0.000, 0.000, 14:48:37.175, 1627991317175
85, -37.73, 3.45, 0.00, 0.00, 0.000, 0.000, 0.000, 14:48:37.183, 1627991317183
86, 100.77, -26.48, 0.00, 0.00, 0.000, 0.000, 0.000, 14:48:37.183, 1627991317183
87, 60.35, -166.42, 0.00, 0.00, 0.000, 0.000, 0.000, 14:48:37.199, 1627991317199
88, -28.31, -136.01, 0.00, 0.00, 0.000, 0.000, 0.000, 14:48:37.199, 1627991317199
89, -52.52, 15.93, 0.00, 0.00, 0.000, 0.000, 0.000, 14:48:37.200, 1627991317200
90, 91.74, 2.14, 0.00, 0.00, 0.000, 0.000, 0.000, 14:48:37.200, 1627991317200
91, 60.29, -103.86, 0.00, 0.00, 0.000, 0.000, 0.000, 14:48:37.214, 1627991317214
92, -25.60, -99.57, 0.00, 0.00, 0.000, 0.000, 0.000, 14:48:37.214, 1627991317214
93, -52.91, 43.41, 0.00, 0.00, 0.000, 0.000, 0.000, 14:48:37.229, 1627991317229
94, 97.16, 30.68, 0.00, 0.00, 0.000, 0.000, 0.000, 14:48:37.229, 1627991317229
95, 74.76, -67.02, 0.00, 0.00, 0.000, 0.000, 0.000, 14:48:37.230, 1627991317230
96, -12.78, -65.50, 0.00, 0.00, 0.000, 0.000, 0.000, 14:48:37.230, 1627991317230
97, -54.22, 63.91, 0.00, 0.00, 0.000, 0.000, 0.000, 14:48:37.243, 1627991317243
98, 83.58, 44.45, 0.00, 0.00, 0.000, 0.000, 0.000, 14:48:37.243, 1627991317243
99, 63.56, -68.97, 0.00, 0.00, 0.000, 0.000, 0.000, 14:48:37.261, 1627991317261
100, -35.33, -80.82, 0.00, 0.00, 0.000, 0.000, 0.000, 14:48:37.261, 1627991317261
101, -55.79, 47.37, 0.00, 0.00, 0.000, 0.000, 0.000, 14:48:37.263, 1627991317263
102, 93.37, 38.93, 0.00, 0.00, 0.000, 0.000, 0.000, 14:48:37.263, 1627991317263
103, 68.08, -75.29, 0.00, 0.00, 0.000, 0.000, 0.000, 14:48:37.306, 1627991317306
104, -22.81, -75.95, 0.00, 0.00, 0.000, 0.000, 0.000, 14:48:37.306, 1627991317306
105, -58.46, 46.19, 0.00, 0.00, 0.000, 0.000, 0.000, 14:48:37.307, 1627991317307
106, 83.70, 35.33, 0.00, 0.00, 0.000, 0.000, 0.000, 14:48:37.307, 1627991317307
107, 57.53, -80.61, 0.00, 0.00, 0.000, 0.000, 0.000, 14:48:37.309, 1627991317309
108, -31.63, -84.84, 0.00, 0.00, 0.000, 0.000, 0.000, 14:48:37.309, 1627991317309
109, -62.95, 42.77, 0.00, 0.00, 0.000, 0.000, 0.000, 14:48:37.309, 1627991317309
110, 85.84, 32.42, 0.00, 0.00, 0.000, 0.000, 0.000, 14:48:37.309, 1627991317309
111, 63.08, -81.29, 0.00, 0.00, 0.000, 0.000, 0.000, 14:48:37.320, 1627991317320
112, -26.23, -84.52, 0.00, 0.00, 0.000, 0.000, 0.000, 14:48:37.320, 1627991317320
113, -59.77, 46.28, 0.00, 0.00, 0.000, 0.000, 0.000, 14:48:37.321, 1627991317321
114, 82.66, 23.54, 0.00, 0.00, 0.000, 0.000, 0.000, 14:48:37.321, 1627991317321
115, 54.32, -84.41, 0.00, 0.00, 0.000, 0.000, 0.000, 14:48:37.334, 1627991317334
116, -25.93, -90.93, 0.00, 0.00, 0.000, 0.000, 0.000, 14:48:37.334, 1627991317334
117, -57.76, 39.30, 0.00, 0.00, 0.000, 0.000, 0.000, 14:48:37.349, 1627991317349
118, 70.15, 21.95, 0.00, 0.00, 0.000, 0.000, 0.000, 14:48:37.349, 1627991317349
119, 55.86, -90.82, 0.00, 0.00, 0.000, 0.000, 0.000, 14:48:37.350, 1627991317350
120, -22.71, -88.85, 0.00, 0.00, 0.000, 0.000, 0.000, 14:48:37.350, 1627991317350
121, -65.19, 35.07, 0.00, 0.00, 0.000, 0.000, 0.000, 14:48:37.364, 1627991317364
122, 75.85, 27.49, 0.00, 0.00, 0.000, 0.000, 0.000, 14:48:37.364, 1627991317364
123, 63.12, -85.79, 0.00, 0.00, 0.000, 0.000, 0.000, 14:48:37.379, 1627991317379
124, -24.60, -94.86, 0.00, 0.00, 0.000, 0.000, 0.000, 14:48:37.379, 1627991317379
125, -63.82, 37.97, 0.00, 0.00, 0.000, 0.000, 0.000, 14:48:37.381, 1627991317381
126, 84.39, 26.05, 0.00, 0.00, 0.000, 0.000, 0.000, 14:48:37.381, 1627991317381
127, 53.81, -91.21, 0.00, 0.00, 0.000, 0.000, 0.000, 14:48:37.394, 1627991317394
128, -35.03, -97.24, 0.00, 0.00, 0.000, 0.000, 0.000, 14:48:37.394, 1627991317394
129, -68.06, 29.61, 0.00, 0.00, 0.000, 0.000, 0.000, 14:48:37.409, 1627991317409
130, 74.23, 14.78, 0.00, 0.00, 0.000, 0.000, 0.000, 14:48:37.409, 1627991317409
131, 46.29, -99.48, 0.00, 0.00, 0.000, 0.000, 0.000, 14:48:37.410, 1627991317410
132, -35.89, -104.37, 0.00, 0.00, 0.000, 0.000, 0.000, 14:48:37.410, 1627991317410
133, -63.31, 32.56, 0.00, 0.00, 0.000, 0.000, 0.000, 14:48:37.424, 1627991317424
134, 81.41, 13.52, 0.00, 0.00, 0.000, 0.000, 0.000, 14:48:37.424, 1627991317424
135, 65.19, -94.66, 0.00, 0.00, 0.000, 0.000, 0.000, 14:48:37.440, 1627991317440
136, -20.37, -95.81, 0.00, 0.00, 0.000, 0.000, 0.000, 14:48:37.440, 1627991317440
137, -54.26, 32.42, 0.00, 0.00, 0.000, 0.000, 0.000, 14:48:37.440, 1627991317440
138, 92.59, 17.44, 0.00, 0.00, 0.000, 0.000, 0.000, 14:48:37.440, 1627991317440
139, 65.24, -84.91, 0.00, 0.00, 0.000, 0.000, 0.000, 14:48:37.454, 1627991317454
140, -19.97, -95.06, 0.00, 0.00, 0.000, 0.000, 0.000, 14:48:37.454, 1627991317454
141, -54.83, 33.48, 0.00, 0.00, 0.000, 0.000, 0.000, 14:48:37.470, 1627991317470
142, 81.45, 17.27, 0.00, 0.00, 0.000, 0.000, 0.000, 14:48:37.470, 1627991317470
143, 63.70, -86.08, 0.00, 0.00, 0.000, 0.000, 0.000, 14:48:37.471, 1627991317471
144, -18.45, -91.33, 0.00, 0.00, 0.000, 0.000, 0.000, 14:48:37.471, 1627991317471
145, -49.09, 35.17, 0.00, 0.00, 0.000, 0.000, 0.000, 14:48:37.483, 1627991317483
146, 99.49, 20.56, 0.00, 0.00, 0.000, 0.000, 0.000, 14:48:37.483, 1627991317483
147, 70.85, -86.36, 0.00, 0.00, 0.000, 0.000, 0.000, 14:48:37.499, 1627991317499
148, -14.57, -95.95, 0.00, 0.00, 0.000, 0.000, 0.000, 14:48:37.499, 1627991317499
149, -46.77, 37.73, 0.00, 0.00, 0.000, 0.000, 0.000, 14:48:37.500, 1627991317500
150, 93.98, 24.59, 0.00, 0.00, 0.000, 0.000, 0.000, 14:48:37.500, 1627991317500
151, 64.46, -90.86, 0.00, 0.00, 0.000, 0.000, 0.000, 14:48:37.513, 1627991317513
152, -18.70, -98.48, 0.00, 0.00, 0.000, 0.000, 0.000, 14:48:37.513, 1627991317513
153, -43.87, 29.59, 0.00, 0.00, 0.000, 0.000, 0.000, 14:48:37.529, 1627991317529
154, 96.94, 14.72, 0.00, 0.00, 0.000, 0.000, 0.000, 14:48:37.529, 1627991317529
155, 77.23, -96.10, 0.00, 0.00, 0.000, 0.000, 0.000, 14:48:37.544, 1627991317544
156, -24.31, -108.63, 0.00, 0.00, 0.000, 0.000, 0.000, 14:48:37.544, 1627991317544
157, -44.07, 27.48, 0.00, 0.00, 0.000, 0.000, 0.000, 14:48:37.545, 1627991317545
158, 96.07, 14.14, 0.00, 0.00, 0.000, 0.000, 0.000, 14:48:37.545, 1627991317545
159, 73.01, -101.68, 0.00, 0.00, 0.000, 0.000, 0.000, 14:48:37.559, 1627991317559
160, -13.20, -97.65, 0.00, 0.00, 0.000, 0.000, 0.000, 14:48:37.559, 1627991317559
161, -41.21, 37.23, 0.00, 0.00, 0.000, 0.000, 0.000, 14:48:37.561, 1627991317561
162, 102.40, 19.11, 0.00, 0.00, 0.000, 0.000, 0.000, 14:48:37.561, 1627991317561
163, 69.57, -93.18, 0.00, 0.00, 0.000, 0.000, 0.000, 14:48:37.573, 1627991317573
164, -15.74, -99.48, 0.00, 0.00, 0.000, 0.000, 0.000, 14:48:37.573, 1627991317573
165, -47.51, 31.54, 0.00, 0.00, 0.000, 0.000, 0.000, 14:48:37.589, 1627991317589
166, 88.85, 8.02, 0.00, 0.00, 0.000, 0.000, 0.000, 14:48:37.589, 1627991317589
167, 81.20, -92.85, 0.00, 0.00, 0.000, 0.000, 0.000, 14:48:37.593, 1627991317593
168, -12.26, -97.66, 0.00, 0.00, 0.000, 0.000, 0.000, 14:48:37.593, 1627991317593
169, -34.67, 33.59, 0.00, 0.00, 0.000, 0.000, 0.000, 14:48:37.603, 1627991317603
170, 103.42, 21.84, 0.00, 0.00, 0.000, 0.000, 0.000, 14:48:37.603, 1627991317603
171, 81.22, -85.60, 0.00, 0.00, 0.000, 0.000, 0.000, 14:48:37.619, 1627991317619
172, 7.67, -83.99, 0.00, 0.00, 0.000, 0.000, 0.000, 14:48:37.619, 1627991317619
173, -27.44, 47.88, 0.00, 0.00, 0.000, 0.000, 0.000, 14:48:37.620, 1627991317620
174, 113.87, 35.22, 0.00, 0.00, 0.000, 0.000, 0.000, 14:48:37.620, 1627991317620
175, 96.92, -79.93, 0.00, 0.00, 0.000, 0.000, 0.000, 14:48:37.633, 1627991317633
176, 2.57, -88.18, 0.00, 0.00, 0.000, 0.000, 0.000, 14:48:37.633, 1627991317633
177, -23.22, 50.63, 0.00, 0.00, 0.000, 0.000, 0.000, 14:48:37.649, 1627991317649
178, 115.71, 34.18, 0.00, 0.00, 0.000, 0.000, 0.000, 14:48:37.649, 1627991317649
179, 101.17, -71.33, 0.00, 0.00, 0.000, 0.000, 0.000, 14:48:37.650, 1627991317650
180, 6.23, -86.13, 0.00, 0.00, 0.000, 0.000, 0.000, 14:48:37.650, 1627991317650
181, -44.75, 38.60, 0.00, 0.00, 0.000, 0.000, 0.000, 14:48:37.664, 1627991317664
182, 118.56, 24.06, 0.00, 0.00, 0.000, 0.000, 0.000, 14:48:37.664, 1627991317664
183, 116.34, -66.39, 0.00, 0.00, 0.000, 0.000, 0.000, 14:48:37.679, 1627991317679
184, 21.28, -90.31, 0.00, 0.00, 0.000, 0.000, 0.000, 14:48:37.679, 1627991317679
185, -7.43, 34.20, 0.00, 0.00, 0.000, 0.000, 0.000, 14:48:37.680, 1627991317680
186, 136.06, 24.99, 0.00, 0.00, 0.000, 0.000, 0.000, 14:48:37.680, 1627991317680
187, 113.38, -101.53, 0.00, 0.00, 0.000, 0.000, 0.000, 14:48:37.694, 1627991317694
188, 20.55, -112.37, 0.00, 0.00, 0.000, 0.000, 0.000, 14:48:37.694, 1627991317694
189, -4.53, 17.80, 0.00, 0.00, 0.000, 0.000, 0.000, 14:48:37.709, 1627991317709
190, 137.81, 7.19, 0.00, 0.00, 0.000, 0.000, 0.000, 14:48:37.709, 1627991317709
191, 114.11, -107.69, 0.00, 0.00, 0.000, 0.000, 0.000, 14:48:37.710, 1627991317710
192, 21.32, -123.19, 0.00, 0.00, 0.000, 0.000, 0.000, 14:48:37.710, 1627991317710
193, -10.57, 4.74, 0.00, 0.00, 0.000, 0.000, 0.000, 14:48:37.724, 1627991317724
194, 129.50, -11.60, 0.00, 0.00, 0.000, 0.000, 0.000, 14:48:37.724, 1627991317724
195, 118.48, -109.40, 0.00, 0.00, 0.000, 0.000, 0.000, 14:48:37.739, 1627991317739
196, 19.54, -130.56, 0.00, 0.00, 0.000, 0.000, 0.000, 14:48:37.739, 1627991317739
197, -8.67, 3.92, 0.00, 0.00, 0.000, 0.000, 0.000, 14:48:37.740, 1627991317740
198, 125.22, -7.35, 0.00, 0.00, 0.000, 0.000, 0.000, 14:48:37.740, 1627991317740
199, 107.12, -119.79, 0.00, 0.00, 0.000, 0.000, 0.000, 14:48:37.754, 1627991317754
200, 16.61, -130.91, 0.00, 0.00, 0.000, 0.000, 0.000, 14:48:37.754, 1627991317754
0, -11.71, 3.35, 0.00, 0.00, 0.000, 0.000, 0.000, 14:48:37.755, 1627991317755
1, 123.96, -9.16, 0.00, 0.00, 0.000, 0.000, 0.000, 14:48:37.769, 1627991317769
2, 105.02, -124.58, 0.00, 0.00, 0.000, 0.000, 0.000, 14:48:37.769, 1627991317769
3, 17.54, -134.17, 0.00, 0.00, 0.000, 0.000, 0.000, 14:48:37.786, 1627991317786
4, -23.38, -13.40, 0.00, 0.00, 0.000, 0.000, 0.000, 14:48:37.786, 1627991317786
5, 120.62, -11.00, 0.00, 0.00, 0.000, 0.000, 0.000, 14:48:37.787, 1627991317787
6, 98.14, -124.38, 0.00, 0.00, 0.000, 0.000, 0.000, 14:48:37.787, 1627991317787
7, 9.14, -136.03, 0.00, 0.00, 0.000, 0.000, 0.000, 14:48:37.799, 1627991317799
8, -30.93, -13.57, 0.00, 0.00, 0.000, 0.000, 0.000, 14:48:37.799, 1627991317799
9, 107.41, -20.80, 0.00, 0.00, 0.000, 0.000, 0.000, 14:48:37.814, 1627991317814
10, 90.68, -131.67, 0.00, 0.00, 0.000, 0.000, 0.000, 14:48:37.814, 1627991317814
11, 8.07, -137.27, 0.00, 0.00, 0.000, 0.000, 0.000, 14:48:37.815, 1627991317815
12, -32.57, -13.36, 0.00, 0.00, 0.000, 0.000, 0.000, 14:48:37.815, 1627991317815
13, 106.10, -25.35, 0.00, 0.00, 0.000, 0.000, 0.000, 14:48:37.845, 1627991317845
14, 93.95, -132.47, 0.00, 0.00, 0.000, 0.000, 0.000, 14:48:37.845, 1627991317845
15, -2.10, -134.45, 0.00, 0.00, 0.000, 0.000, 0.000, 14:48:37.846, 1627991317846
16, -36.78, -9.42, 0.00, 0.00, 0.000, 0.000, 0.000, 14:48:37.846, 1627991317846
17, 104.28, -16.20, 0.00, 0.00, 0.000, 0.000, 0.000, 14:48:37.847, 1627991317847
18, 81.33, -132.31, 0.00, 0.00, 0.000, 0.000, 0.000, 14:48:37.847, 1627991317847
19, -3.75, -134.69, 0.00, 0.00, 0.000, 0.000, 0.000, 14:48:37.859, 1627991317859
20, -35.39, -2.90, 0.00, 0.00, 0.000, 0.000, 0.000, 14:48:37.859, 1627991317859
21, 115.60, -8.70, 0.00, 0.00, 0.000, 0.000, 0.000, 14:48:37.875, 1627991317875
22, 93.99, -120.05, 0.00, 0.00, 0.000, 0.000, 0.000, 14:48:37.875, 1627991317875
23, 6.50, -128.31, 0.00, 0.00, 0.000, 0.000, 0.000, 14:48:37.878, 1627991317878
24, -22.37, -3.64, 0.00, 0.00, 0.000, 0.000, 0.000, 14:48:37.878, 1627991317878
25, 112.43, -16.75, 0.00, 0.00, 0.000, 0.000, 0.000, 14:48:37.889, 1627991317889
26, 94.26, -124.47, 0.00, 0.00, 0.000, 0.000, 0.000, 14:48:37.889, 1627991317889
27, 0.94, -130.69, 0.00, 0.00, 0.000, 0.000, 0.000, 14:48:37.920, 1627991317920
28, -26.35, 0.22, 0.00, 0.00, 0.000, 0.000, 0.000, 14:48:37.920, 1627991317920
29, 104.34, -11.63, 0.00, 0.00, 0.000, 0.000, 0.000, 14:48:37.922, 1627991317922
30, 91.48, -117.47, 0.00, 0.00, 0.000, 0.000, 0.000, 14:48:37.922, 1627991317922
31, 3.80, -136.03, 0.00, 0.00, 0.000, 0.000, 0.000, 14:48:37.922, 1627991317922
32, -33.16, -7.12, 0.00, 0.00, 0.000, 0.000, 0.000, 14:48:37.922, 1627991317922
33, 107.65, -11.84, 0.00, 0.00, 0.000, 0.000, 0.000, 14:48:37.934, 1627991317934
34, 86.33, -117.11, 0.00, 0.00, 0.000, 0.000, 0.000, 14:48:37.934, 1627991317934
35, -8.58, -139.58, 0.00, 0.00, 0.000, 0.000, 0.000, 14:48:37.935, 1627991317935
36, -40.62, -15.10, 0.00, 0.00, 0.000, 0.000, 0.000, 14:48:37.935, 1627991317935
37, 119.42, -5.98, 0.00, 0.00, 0.000, 0.000, 0.000, 14:48:37.948, 1627991317948
38, 96.44, -117.43, 0.00, 0.00, 0.000, 0.000, 0.000, 14:48:37.948, 1627991317948
39, 8.04, -139.95, 0.00, 0.00, 0.000, 0.000, 0.000, 14:48:37.965, 1627991317965
40, -29.91, -7.34, 0.00, 0.00, 0.000, 0.000, 0.000, 14:48:37.965, 1627991317965
41, 105.10, -21.36, 0.00, 0.00, 0.000, 0.000, 0.000, 14:48:37.966, 1627991317966
42, 93.94, -123.92, 0.00, 0.00, 0.000, 0.000, 0.000, 14:48:37.966, 1627991317966
43, 7.20, -132.13, 0.00, 0.00, 0.000, 0.000, 0.000, 14:48:37.982, 1627991317982
44, -29.68, -3.70, 0.00, 0.00, 0.000, 0.000, 0.000, 14:48:37.982, 1627991317982
45, 119.50, -11.15, 0.00, 0.00, 0.000, 0.000, 0.000, 14:48:37.995, 1627991317995
46, 100.17, -114.54, 0.00, 0.00, 0.000, 0.000, 0.000, 14:48:37.995, 1627991317995
47, 9.47, -130.10, 0.00, 0.00, 0.000, 0.000, 0.000, 14:48:37.996, 1627991317996
48, -10.31, 4.79, 0.00, 0.00, 0.000, 0.000, 0.000, 14:48:37.996, 1627991317996
49, 123.56, -8.35, 0.00, 0.00, 0.000, 0.000, 0.000, 14:48:38.008, 1627991318008
50, 106.94, -121.44, 0.00, 0.00, 0.000, 0.000, 0.000, 14:48:38.008, 1627991318008
51, 15.39, -129.41, 0.00, 0.00, 0.000, 0.000, 0.000, 14:48:38.024, 1627991318024
52, -24.89, -4.86, 0.00, 0.00, 0.000, 0.000, 0.000, 14:48:38.024, 1627991318024
53, 111.48, -20.47, 0.00, 0.00, 0.000, 0.000, 0.000, 14:48:38.026, 1627991318026
54, 90.22, -126.54, 0.00, 0.00, 0.000, 0.000, 0.000, 14:48:38.026, 1627991318026
55, -5.87, -144.62, 0.00, 0.00, 0.000, 0.000, 0.000, 14:48:38.039, 1627991318039
56, -38.37, -7.41, 0.00, 0.00, 0.000, 0.000, 0.000, 14:48:38.039, 1627991318039
57, 104.09, -16.31, 0.00, 0.00, 0.000, 0.000, 0.000, 14:48:38.056, 1627991318056
58, 94.93, -120.91, 0.00, 0.00, 0.000, 0.000, 0.000, 14:48:38.056, 1627991318056
59, 0.92, -129.48, 0.00, 0.00, 0.000, 0.000, 0.000, 14:48:38.057, 1627991318057
60, -27.50, -4.39, 0.00, 0.00, 0.000, 0.000, 0.000, 14:48:38.057, 1627991318057
61, 106.85, -6.77, 0.00, 0.00, 0.000, 0.000, 0.000, 14:48:38.069, 1627991318069
62, 98.40, -113.27, 0.00, 0.00, 0.000, 0.000, 0.000, 14:48:38.069, 1627991318069
63, 3.81, -128.80, 0.00, 0.00, 0.000, 0.000, 0.000, 14:48:38.085, 1627991318085
64, -28.51, -8.52, 0.00, 0.00, 0.000, 0.000, 0.000, 14:48:38.085, 1627991318085
65, 103.87, -14.98, 0.00, 0.00, 0.000, 0.000, 0.000, 14:48:38.086, 1627991318086
66, 86.71, -129.29, 0.00, 0.00, 0.000, 0.000, 0.000, 14:48:38.086, 1627991318086
67, 1.72, -133.44, 0.00, 0.00, 0.000, 0.000, 0.000, 14:48:38.101, 1627991318101
68, -29.42, -7.31, 0.00, 0.00, 0.000, 0.000, 0.000, 14:48:38.101, 1627991318101
69, 119.57, -3.10, 0.00, 0.00, 0.000, 0.000, 0.000, 14:48:38.115, 1627991318115
70, 94.27, -116.52, 0.00, 0.00, 0.000, 0.000, 0.000, 14:48:38.115, 1627991318115
71, 11.08, -133.19, 0.00, 0.00, 0.000, 0.000, 0.000, 14:48:38.116, 1627991318116
72, -29.66, -10.01, 0.00, 0.00, 0.000, 0.000, 0.000, 14:48:38.116, 1627991318116
73, 106.99, -18.56, 0.00, 0.00, 0.000, 0.000, 0.000, 14:48:38.129, 1627991318129
74, 92.76, -127.18, 0.00, 0.00, 0.000, 0.000, 0.000, 14:48:38.129, 1627991318129
75, -1.99, -132.58, 0.00, 0.00, 0.000, 0.000, 0.000, 14:48:38.168, 1627991318168
76, -41.75, -4.19, 0.00, 0.00, 0.000, 0.000, 0.000, 14:48:38.168, 1627991318168
77, 102.73, -6.44, 0.00, 0.00, 0.000, 0.000, 0.000, 14:48:38.168, 1627991318168
78, 90.68, -122.99, 0.00, 0.00, 0.000, 0.000, 0.000, 14:48:38.168, 1627991318168
79, 2.33, -131.51, 0.00, 0.00, 0.000, 0.000, 0.000, 14:48:38.169, 1627991318169
80, -33.56, -8.47, 0.00, 0.00, 0.000, 0.000, 0.000, 14:48:38.169, 1627991318169
81, 106.00, -2.66, 0.00, 0.00, 0.000, 0.000, 0.000, 14:48:38.175, 1627991318175
82, 90.33, -119.02, 0.00, 0.00, 0.000, 0.000, 0.000, 14:48:38.175, 1627991318175
83, -5.50, -130.06, 0.00, 0.00, 0.000, 0.000, 0.000, 14:48:38.176, 1627991318176
84, -45.01, -3.33, 0.00, 0.00, 0.000, 0.000, 0.000, 14:48:38.176, 1627991318176
85, 95.34, -14.34, 0.00, 0.00, 0.000, 0.000, 0.000, 14:48:38.189, 1627991318189
86, 83.64, -112.50, 0.00, 0.00, 0.000, 0.000, 0.000, 14:48:38.189, 1627991318189
87, -8.39, -131.37, 0.00, 0.00, 0.000, 0.000, 0.000, 14:48:38.205, 1627991318205
88, -44.30, -9.21, 0.00, 0.00, 0.000, 0.000, 0.000, 14:48:38.205, 1627991318205
89, 93.25, -17.03, 0.00, 0.00, 0.000, 0.000, 0.000, 14:48:38.206, 1627991318206
90, 89.14, -116.68, 0.00, 0.00, 0.000, 0.000, 0.000, 14:48:38.206, 1627991318206
91, 7.53, -125.04, 0.00, 0.00, 0.000, 0.000, 0.000, 14:48:38.223, 1627991318223
92, -28.94, 1.19, 0.00, 0.00, 0.000, 0.000, 0.000, 14:48:38.223, 1627991318223
93, 103.85, -8.35, 0.00, 0.00, 0.000, 0.000, 0.000, 14:48:38.235, 1627991318235
94, 91.15, -116.52, 0.00, 0.00, 0.000, 0.000, 0.000, 14:48:38.235, 1627991318235
95, -6.19, -134.86, 0.00, 0.00, 0.000, 0.000, 0.000, 14:48:38.236, 1627991318236
96, -37.47, -8.90, 0.00, 0.00, 0.000, 0.000, 0.000, 14:48:38.236, 1627991318236
97, 97.62, -4.09, 0.00, 0.00, 0.000, 0.000, 0.000, 14:48:38.249, 1627991318249
98, 82.86, -122.40, 0.00, 0.00, 0.000, 0.000, 0.000, 14:48:38.249, 1627991318249
99, -4.53, -128.66, 0.00, 0.00, 0.000, 0.000, 0.000, 14:48:38.265, 1627991318265
100, -41.12, -7.13, 0.00, 0.00, 0.000, 0.000, 0.000, 14:48:38.265, 1627991318265
101, 102.86, -11.59, 0.00, 0.00, 0.000, 0.000, 0.000, 14:48:38.266, 1627991318266
102, 85.11, -113.86, 0.00, 0.00, 0.000, 0.000, 0.000, 14:48:38.266, 1627991318266
103, -7.74, -132.48, 0.00, 0.00, 0.000, 0.000, 0.000, 14:48:38.278, 1627991318278
104, -37.26, 1.19, 0.00, 0.00, 0.000, 0.000, 0.000, 14:48:38.278, 1627991318278
105, 94.32, -2.03, 0.00, 0.00, 0.000, 0.000, 0.000, 14:48:38.294, 1627991318294
106, 87.12, -104.84, 0.00, 0.00, 0.000, 0.000, 0.000, 14:48:38.294, 1627991318294
107, -12.64, -126.50, 0.00, 0.00, 0.000, 0.000, 0.000, 14:48:38.294, 1627991318294
108, -38.85, 1.86, 0.00, 0.00, 0.000, 0.000, 0.000, 14:48:38.294, 1627991318294
109, 112.28, -8.88, 0.00, 0.00, 0.000, 0.000, 0.000, 14:48:38.308, 1627991318308
110, 70.69, -144.01, 0.00, 0.00, 0.000, 0.000, 0.000, 14:48:38.308, 1627991318308
111, -18.84, -126.56, 0.00, 0.00, 0.000, 0.000, 0.000, 14:48:38.324, 1627991318324
112, -44.20, 17.68, 0.00, 0.00, 0.000, 0.000, 0.000, 14:48:38.324, 1627991318324
113, 99.66, 15.05, 0.00, 0.00, 0.000, 0.000, 0.000, 14:48:38.326, 1627991318326
114, 69.23, -102.59, 0.00, 0.00, 0.000, 0.000, 0.000, 14:48:38.326, 1627991318326
115, -11.78, -101.92, 0.00, 0.00, 0.000, 0.000, 0.000, 14:48:38.338, 1627991318338
116, -53.71, 25.87, 0.00, 0.00, 0.000, 0.000, 0.000, 14:48:38.338, 1627991318338
117, 88.14, 18.79, 0.00, 0.00, 0.000, 0.000, 0.000, 14:48:38.355, 1627991318355
118, 77.38, -93.69, 0.00, 0.00, 0.000, 0.000, 0.000, 14:48:38.355, 1627991318355
119, -17.46, -109.53, 0.00, 0.00, 0.000, 0.000, 0.000, 14:48:38.356, 1627991318356
120, -61.09, 9.03, 0.00, 0.00, 0.000, 0.000, 0.000, 14:48:38.356, 1627991318356
121, 83.78, 17.61, 0.00, 0.00, 0.000, 0.000, 0.000, 14:48:38.368, 1627991318368
122, 78.64, -90.26, 0.00, 0.00, 0.000, 0.000, 0.000, 14:48:38.368, 1627991318368
123, -6.96, -97.64, 0.00, 0.00, 0.000, 0.000, 0.000, 14:48:38.384, 1627991318384
124, -42.96, 25.37, 0.00, 0.00, 0.000, 0.000, 0.000, 14:48:38.384, 1627991318384
125, 90.29, 19.67, 0.00, 0.00, 0.000, 0.000, 0.000, 14:48:38.400, 1627991318400
126, 70.06, -104.32, 0.00, 0.00, 0.000, 0.000, 0.000, 14:48:38.400, 1627991318400
127, 6.36, -95.25, 0.00, 0.00, 0.000, 0.000, 0.000, 14:48:38.401, 1627991318401
128, -43.65, 11.40, 0.00, 0.00, 0.000, 0.000, 0.000, 14:48:38.401, 1627991318401
129, 94.63, 12.47, 0.00, 0.00, 0.000, 0.000, 0.000, 14:48:38.414, 1627991318414
130, 81.51, -95.88, 0.00, 0.00, 0.000, 0.000, 0.000, 14:48:38.414, 1627991318414
131, -5.88, -104.45, 0.00, 0.00, 0.000, 0.000, 0.000, 14:48:38.415, 1627991318415
132, -52.93, 9.92, 0.00, 0.00, 0.000, 0.000, 0.000, 14:48:38.415, 1627991318415
133, 91.49, 5.96, 0.00, 0.00, 0.000, 0.000, 0.000, 14:48:38.428, 1627991318428
134, 79.02, -100.14, 0.00, 0.00, 0.000, 0.000, 0.000, 14:48:38.428, 1627991318428
135, -22.43, -119.03, 0.00, 0.00, 0.000, 0.000, 0.000, 14:48:38.446, 1627991318446
136, -54.17, 7.10, 0.00, 0.00, 0.000, 0.000, 0.000, 14:48:38.446, 1627991318446
137, 104.63, 16.27, 0.00, 0.00, 0.000, 0.000, 0.000, 14:48:38.448, 1627991318448
138, 78.85, -106.65, 0.00, 0.00, 0.000, 0.000, 0.000, 14:48:38.448, 1627991318448
139, -10.72, -115.79, 0.00, 0.00, 0.000, 0.000, 0.000, 14:48:38.459, 1627991318459
140, -44.00, 3.02, 0.00, 0.00, 0.000, 0.000, 0.000, 14:48:38.459, 1627991318459
141, 96.65, -3.29, 0.00, 0.00, 0.000, 0.000, 0.000, 14:48:38.474, 1627991318474
142, 56.60, -131.86, 0.00, 0.00, 0.000, 0.000, 0.000, 14:48:38.474, 1627991318474
143, -11.59, -95.02, 0.00, 0.00, 0.000, 0.000, 0.000, 14:48:38.479, 1627991318479
144, -25.99, 40.43, 0.00, 0.00, 0.000, 0.000, 0.000, 14:48:38.479, 1627991318479
145, 90.25, 28.44, 0.00, 0.00, 0.000, 0.000, 0.000, 14:48:38.488, 1627991318488
146, 87.08, -69.96, 0.00, 0.00, 0.000, 0.000, 0.000, 14:48:38.488, 1627991318488
147, -1.38, -76.83, 0.00, 0.00, 0.000, 0.000, 0.000, 14:48:38.505, 1627991318505
148, -29.44, 62.91, 0.00, 0.00, 0.000, 0.000, 0.000, 14:48:38.505, 1627991318505
149, 94.85, 54.95, 0.00, 0.00, 0.000, 0.000, 0.000, 14:48:38.506, 1627991318506
150, 80.95, -55.98, 0.00, 0.00, 0.000, 0.000, 0.000, 14:48:38.506, 1627991318506
151, -1.65, -74.25, 0.00, 0.00, 0.000, 0.000, 0.000, 14:48:38.519, 1627991318519
152, -43.62, 48.89, 0.00, 0.00, 0.000, 0.000, 0.000, 14:48:38.519, 1627991318519
153, 88.95, 42.56, 0.00, 0.00, 0.000, 0.000, 0.000, 14:48:38.535, 1627991318535
154, 71.59, -81.87, 0.00, 0.00, 0.000, 0.000, 0.000, 14:48:38.535, 1627991318535
155, -18.31, -93.36, 0.00, 0.00, 0.000, 0.000, 0.000, 14:48:38.536, 1627991318536
156, -50.99, 33.73, 0.00, 0.00, 0.000, 0.000, 0.000, 14:48:38.536, 1627991318536
157, 84.74, 26.16, 0.00, 0.00, 0.000, 0.000, 0.000, 14:48:38.549, 1627991318549
158, 65.14, -90.85, 0.00, 0.00, 0.000, 0.000, 0.000, 14:48:38.549, 1627991318549
159, -27.88, -109.18, 0.00, 0.00, 0.000, 0.000, 0.000, 14:48:38.564, 1627991318564
160, -43.00, 34.83, 0.00, 0.00, 0.000, 0.000, 0.000, 14:48:38.564, 1627991318564
161, 92.42, 24.36, 0.00, 0.00, 0.000, 0.000, 0.000, 14:48:38.565, 1627991318565
162, 88.88, -81.09, 0.00, 0.00, 0.000, 0.000, 0.000, 14:48:38.565, 1627991318565
163, -15.12, -111.31, 0.00, 0.00, 0.000, 0.000, 0.000, 14:48:38.581, 1627991318581
164, -40.64, 24.74, 0.00, 0.00, 0.000, 0.000, 0.000, 14:48:38.581, 1627991318581
165, 85.05, 24.18, 0.00, 0.00, 0.000, 0.000, 0.000, 14:48:38.595, 1627991318595
166, 79.45, -85.83, 0.00, 0.00, 0.000, 0.000, 0.000, 14:48:38.595, 1627991318595
167, -21.38, -105.49, 0.00, 0.00, 0.000, 0.000, 0.000, 14:48:38.596, 1627991318596
168, -46.64, 26.30, 0.00, 0.00, 0.000, 0.000, 0.000, 14:48:38.596, 1627991318596
169, 80.91, 16.53, 0.00, 0.00, 0.000, 0.000, 0.000, 14:48:38.610, 1627991318610
170, 75.31, -91.11, 0.00, 0.00, 0.000, 0.000, 0.000, 14:48:38.610, 1627991318610
171, -15.21, -106.99, 0.00, 0.00, 0.000, 0.000, 0.000, 14:48:38.625, 1627991318625
172, -44.82, 15.37, 0.00, 0.00, 0.000, 0.000, 0.000, 14:48:38.625, 1627991318625
173, 91.97, 21.11, 0.00, 0.00, 0.000, 0.000, 0.000, 14:48:38.631, 1627991318631
174, 86.91, -82.99, 0.00, 0.00, 0.000, 0.000, 0.000, 14:48:38.631, 1627991318631
175, 9.28, -87.75, 0.00, 0.00, 0.000, 0.000, 0.000, 14:48:38.639, 1627991318639
176, -35.30, 26.92, 0.00, 0.00, 0.000, 0.000, 0.000, 14:48:38.639, 1627991318639
177, 100.15, 23.52, 0.00, 0.00, 0.000, 0.000, 0.000, 14:48:38.671, 1627991318671
178, 79.76, -85.23, 0.00, 0.00, 0.000, 0.000, 0.000, 14:48:38.671, 1627991318671
179, -11.63, -107.40, 0.00, 0.00, 0.000, 0.000, 0.000, 14:48:38.672, 1627991318672
180, -32.45, 23.01, 0.00, 0.00, 0.000, 0.000, 0.000, 14:48:38.672, 1627991318672
181, 92.65, 19.37, 0.00, 0.00, 0.000, 0.000, 0.000, 14:48:38.672, 1627991318672
182, 85.75, -101.17, 0.00, 0.00, 0.000, 0.000, 0.000, 14:48:38.672, 1627991318672
183, -2.46, -108.54, 0.00, 0.00, 0.000, 0.000, 0.000, 14:48:38.684, 1627991318684
184, -33.12, 23.89, 0.00, 0.00, 0.000, 0.000, 0.000, 14:48:38.684, 1627991318684
185, 96.57, 13.36, 0.00, 0.00, 0.000, 0.000, 0.000, 14:48:38.687, 1627991318687
186, 82.33, -98.50, 0.00, 0.00, 0.000, 0.000, 0.000, 14:48:38.687, 1627991318687
187, -7.65, -105.39, 0.00, 0.00, 0.000, 0.000, 0.000, 14:48:38.698, 1627991318698
188, -31.18, 30.87, 0.00, 0.00, 0.000, 0.000, 0.000, 14:48:38.698, 1627991318698
189, 96.48, 20.98, 0.00, 0.00, 0.000, 0.000, 0.000, 14:48:38.714, 1627991318714
190, 73.97, -91.24, 0.00, 0.00, 0.000, 0.000, 0.000, 14:48:38.714, 1627991318714
191, -28.80, -123.57, 0.00, 0.00, 0.000, 0.000, 0.000, 14:48:38.715, 1627991318715
192, -52.11, 6.42, 0.00, 0.00, 0.000, 0.000, 0.000, 14:48:38.715, 1627991318715
193, 81.44, 5.56, 0.00, 0.00, 0.000, 0.000, 0.000, 14:48:38.731, 1627991318731
194, 71.97, -93.53, 0.00, 0.00, 0.000, 0.000, 0.000, 14:48:38.731, 1627991318731
195, -30.55, -119.96, 0.00, 0.00, 0.000, 0.000, 0.000, 14:48:38.747, 1627991318747
196, -32.33, 9.09, 0.00, 0.00, 0.000, 0.000, 0.000, 14:48:38.747, 1627991318747
197, 128.53, 40.76, 0.00, 0.00, 0.000, 0.000, 0.000, 14:48:38.760, 1627991318760
198, 101.23, -89.64, 0.00, 0.00, 0.000, 0.000, 0.000, 14:48:38.760, 1627991318760
199, 12.01, -113.48, 0.00, 0.00, 0.000, 0.000, 0.000, 14:48:38.761, 1627991318761
200, -21.14, 12.03, 0.00, 0.00, 0.000, 0.000, 0.000, 14:48:38.761, 1627991318761
0, 117.88, 11.37, 0.00, 0.00, 0.000, 0.000, 0.000, 14:48:38.762, 1627991318762
1, 114.51, -95.20, 0.00, 0.00, 0.000, 0.000, 0.000, 14:48:38.773, 1627991318773
2, 12.42, -127.92, 0.00, 0.00, 0.000, 0.000, 0.000, 14:48:38.773, 1627991318773
3, -5.41, 3.09, 0.00, 0.00, 0.000, 0.000, 0.000, 14:48:38.789, 1627991318789
4, 115.68, -6.41, 0.00, 0.00, 0.000, 0.000, 0.000, 14:48:38.789, 1627991318789
5, 104.71, -119.58, 0.00, 0.00, 0.000, 0.000, 0.000, 14:48:38.791, 1627991318791
6, 1.88, -155.71, 0.00, 0.00, 0.000, 0.000, 0.000, 14:48:38.791, 1627991318791
7, -23.41, -15.65, 0.00, 0.00, 0.000, 0.000, 0.000, 14:48:38.803, 1627991318803
8, 109.51, -5.80, 0.00, 0.00, 0.000, 0.000, 0.000, 14:48:38.803, 1627991318803
9, 99.89, -113.03, 0.00, 0.00, 0.000, 0.000, 0.000, 14:48:38.819, 1627991318819
10, 11.45, -129.07, 0.00, 0.00, 0.000, 0.000, 0.000, 14:48:38.819, 1627991318819
11, -18.88, -11.96, 0.00, 0.00, 0.000, 0.000, 0.000, 14:48:38.820, 1627991318820
12, 111.14, 5.26, 0.00, 0.00, 0.000, 0.000, 0.000, 14:48:38.820, 1627991318820
13, 93.42, -110.80, 0.00, 0.00, 0.000, 0.000, 0.000, 14:48:38.833, 1627991318833
14, -2.83, -124.92, 0.00, 0.00, 0.000, 0.000, 0.000, 14:48:38.833, 1627991318833
15, -38.08, -9.91, 0.00, 0.00, 0.000, 0.000, 0.000, 14:48:38.849, 1627991318849
16, 89.68, 0.13, 0.00, 0.00, 0.000, 0.000, 0.000, 14:48:38.849, 1627991318849
17, 80.36, -101.84, 0.00, 0.00, 0.000, 0.000, 0.000, 14:48:38.850, 1627991318850
18, -10.59, -118.22, 0.00, 0.00, 0.000, 0.000, 0.000, 14:48:38.850, 1627991318850
19, -36.71, 8.91, 0.00, 0.00, 0.000, 0.000, 0.000, 14:48:38.864, 1627991318864
20, 100.84, 26.76, 0.00, 0.00, 0.000, 0.000, 0.000, 14:48:38.864, 1627991318864
21, 79.71, -92.80, 0.00, 0.00, 0.000, 0.000, 0.000, 14:48:38.879, 1627991318879
22, -1.29, -110.35, 0.00, 0.00, 0.000, 0.000, 0.000, 14:48:38.879, 1627991318879
23, -45.89, 9.32, 0.00, 0.00, 0.000, 0.000, 0.000, 14:48:38.880, 1627991318880
24, 92.85, 21.35, 0.00, 0.00, 0.000, 0.000, 0.000, 14:48:38.880, 1627991318880
25, 82.45, -90.69, 0.00, 0.00, 0.000, 0.000, 0.000, 14:48:38.894, 1627991318894
26, -14.94, -111.15, 0.00, 0.00, 0.000, 0.000, 0.000, 14:48:38.894, 1627991318894
27, -59.65, 8.57, 0.00, 0.00, 0.000, 0.000, 0.000, 14:48:38.912, 1627991318912
28, 79.31, 15.97, 0.00, 0.00, 0.000, 0.000, 0.000, 14:48:38.912, 1627991318912
29, 73.17, -89.16, 0.00, 0.00, 0.000, 0.000, 0.000, 14:48:38.913, 1627991318913
30, -18.47, -106.81, 0.00, 0.00, 0.000, 0.000, 0.000, 14:48:38.913, 1627991318913
31, -71.04, 6.12, 0.00, 0.00, 0.000, 0.000, 0.000, 14:48:38.924, 1627991318924
32, 80.51, 27.74, 0.00, 0.00, 0.000, 0.000, 0.000, 14:48:38.924, 1627991318924
33, 72.55, -92.12, 0.00, 0.00, 0.000, 0.000, 0.000, 14:48:38.955, 1627991318955
34, -18.99, -113.13, 0.00, 0.00, 0.000, 0.000, 0.000, 14:48:38.955, 1627991318955
35, -62.20, 7.34, 0.00, 0.00, 0.000, 0.000, 0.000, 14:48:38.960, 1627991318960
36, 82.75, 15.76, 0.00, 0.00, 0.000, 0.000, 0.000, 14:48:38.960, 1627991318960
37, 73.51, -92.14, 0.00, 0.00, 0.000, 0.000, 0.000, 14:48:38.961, 1627991318961
38, -22.42, -111.33, 0.00, 0.00, 0.000, 0.000, 0.000, 14:48:38.961, 1627991318961
39, -63.11, 8.92, 0.00, 0.00, 0.000, 0.000, 0.000, 14:48:38.970, 1627991318970
40, 82.61, 20.67, 0.00, 0.00, 0.000, 0.000, 0.000, 14:48:38.970, 1627991318970
41, 74.71, -89.41, 0.00, 0.00, 0.000, 0.000, 0.000, 14:48:38.971, 1627991318971
42, -21.78, -109.98, 0.00, 0.00, 0.000, 0.000, 0.000, 14:48:38.971, 1627991318971
43, -72.24, 6.54, 0.00, 0.00, 0.000, 0.000, 0.000, 14:48:38.984, 1627991318984
44, 73.36, 15.53, 0.00, 0.00, 0.000, 0.000, 0.000, 14:48:38.984, 1627991318984
45, 67.37, -90.00, 0.00, 0.00, 0.000, 0.000, 0.000, 14:48:39.000, 1627991319000
46, -24.24, -116.61, 0.00, 0.00, 0.000, 0.000, 0.000, 14:48:39.000, 1627991319000
47, -70.38, 3.24, 0.00, 0.00, 0.000, 0.000, 0.000, 14:48:39.000, 1627991319000
48, 70.86, 15.23, 0.00, 0.00, 0.000, 0.000, 0.000, 14:48:39.000, 1627991319000
49, 67.06, -96.22, 0.00, 0.00, 0.000, 0.000, 0.000, 14:48:39.014, 1627991319014
50, -20.75, -112.33, 0.00, 0.00, 0.000, 0.000, 0.000, 14:48:39.014, 1627991319014
51, -61.98, 5.29, 0.00, 0.00, 0.000, 0.000, 0.000, 14:48:39.029, 1627991319029
52, 77.43, 14.85, 0.00, 0.00, 0.000, 0.000, 0.000, 14:48:39.029, 1627991319029
53, 71.48, -97.55, 0.00, 0.00, 0.000, 0.000, 0.000, 14:48:39.030, 1627991319030
54, -18.59, -127.60, 0.00, 0.00, 0.000, 0.000, 0.000, 14:48:39.030, 1627991319030
55, -57.82, -6.06, 0.00, 0.00, 0.000, 0.000, 0.000, 14:48:39.043, 1627991319043
56, 68.71, -1.47, 0.00, 0.00, 0.000, 0.000, 0.000, 14:48:39.043, 1627991319043
57, 86.36, -91.90, 0.00, 0.00, 0.000, 0.000, 0.000, 14:48:39.060, 1627991319060
58, -5.05, -105.74, 0.00, 0.00, 0.000, 0.000, 0.000, 14:48:39.060, 1627991319060
59, -52.82, -4.19, 0.00, 0.00, 0.000, 0.000, 0.000, 14:48:39.061, 1627991319061
60, 82.75, 8.29, 0.00, 0.00, 0.000, 0.000, 0.000, 14:48:39.061, 1627991319061
61, 79.81, -101.28, 0.00, 0.00, 0.000, 0.000, 0.000, 14:48:39.073, 1627991319073
62, -12.36, -131.34, 0.00, 0.00, 0.000, 0.000, 0.000, 14:48:39.073, 1627991319073
63, -45.16, 7.39, 0.00, 0.00, 0.000, 0.000, 0.000, 14:48:39.089, 1627991319089
64, 118.75, 37.24, 0.00, 0.00, 0.000, 0.000, 0.000, 14:48:39.089, 1627991319089
65, 115.34, -74.98, 0.00, 0.00, 0.000, 0.000, 0.000, 14:48:39.091, 1627991319091
66, 13.51, -94.18, 0.00, 0.00, 0.000, 0.000, 0.000, 14:48:39.091, 1627991319091
67, -39.96, 23.59, 0.00, 0.00, 0.000, 0.000, 0.000, 14:48:39.103, 1627991319103
68, 140.47, 67.46, 0.00, 0.00, 0.000, 0.000, 0.000, 14:48:39.103, 1627991319103
69, 154.61, -28.99, 0.00, 0.00, 0.000, 0.000, 0.000, 14:48:39.119, 1627991319119
70, 64.35, -35.27, 0.00, 0.00, 0.000, 0.000, 0.000, 14:48:39.119, 1627991319119
71, 31.14, 85.69, 0.00, 0.00, 0.000, 0.000, 0.000, 14:48:39.120, 1627991319120
72, 204.03, 128.12, 0.00, 0.00, 0.000, 0.000, 0.000, 14:48:39.120, 1627991319120
73, 232.96, 65.86, 0.00, 0.00, 0.000, 0.000, 0.000, 14:48:39.133, 1627991319133
74, 129.26, 37.56, 0.00, 0.00, 0.000, 0.000, 0.000, 14:48:39.133, 1627991319133
75, 71.88, 163.76, 0.00, 0.00, 0.000, 0.000, 0.000, 14:48:39.149, 1627991319149
76, 216.82, 174.85, 0.00, 0.00, 0.000, 0.000, 0.000, 14:48:39.149, 1627991319149
77, 229.13, 69.45, 0.00, 0.00, 0.000, 0.000, 0.000, 14:48:39.153, 1627991319153
78, 115.13, 26.87, 0.00, 0.00, 0.000, 0.000, 0.000, 14:48:39.153, 1627991319153
79, 46.30, 124.41, 0.00, 0.00, 0.000, 0.000, 0.000, 14:48:39.164, 1627991319164
80, 180.67, 123.65, 0.00, 0.00, 0.000, 0.000, 0.000, 14:48:39.164, 1627991319164
81, 189.66, 20.15, 0.00, 0.00, 0.000, 0.000, 0.000, 14:48:39.179, 1627991319179
82, 69.32, -25.23, 0.00, 0.00, 0.000, 0.000, 0.000, 14:48:39.179, 1627991319179
83, -8.73, 65.41, 0.00, 0.00, 0.000, 0.000, 0.000, 14:48:39.180, 1627991319180
84, 137.46, 67.14, 0.00, 0.00, 0.000, 0.000, 0.000, 14:48:39.180, 1627991319180
85, 147.71, -39.85, 0.00, 0.00, 0.000, 0.000, 0.000, 14:48:39.194, 1627991319194
86, 31.38, -85.34, 0.00, 0.00, 0.000, 0.000, 0.000, 14:48:39.194, 1627991319194
87, -44.43, 11.67, 0.00, 0.00, 0.000, 0.000, 0.000, 14:48:39.210, 1627991319210
88, 102.41, 14.96, 0.00, 0.00, 0.000, 0.000, 0.000, 14:48:39.210, 1627991319210
89, 118.56, -90.53, 0.00, 0.00, 0.000, 0.000, 0.000, 14:48:39.211, 1627991319211
90, 13.35, -113.57, 0.00, 0.00, 0.000, 0.000, 0.000, 14:48:39.211, 1627991319211
91, -61.32, -17.66, 0.00, 0.00, 0.000, 0.000, 0.000, 14:48:39.224, 1627991319224
92, 89.85, -9.91, 0.00, 0.00, 0.000, 0.000, 0.000, 14:48:39.224, 1627991319224
93, 92.39, -120.25, 0.00, 0.00, 0.000, 0.000, 0.000, 14:48:39.239, 1627991319239
94, -13.38, -149.86, 0.00, 0.00, 0.000, 0.000, 0.000, 14:48:39.239, 1627991319239
95, -77.00, -42.70, 0.00, 0.00, 0.000, 0.000, 0.000, 14:48:39.244, 1627991319244
96, 76.45, -23.33, 0.00, 0.00, 0.000, 0.000, 0.000, 14:48:39.244, 1627991319244
97, 92.22, -131.98, 0.00, 0.00, 0.000, 0.000, 0.000, 14:48:39.254, 1627991319254
98, -15.55, -161.00, 0.00, 0.00, 0.000, 0.000, 0.000, 14:48:39.254, 1627991319254
99, -84.13, -54.18, 0.00, 0.00, 0.000, 0.000, 0.000, 14:48:39.269, 1627991319269
100, 73.69, -32.10, 0.00, 0.00, 0.000, 0.000, 0.000, 14:48:39.269, 1627991319269
101, 92.10, -135.81, 0.00, 0.00, 0.000, 0.000, 0.000, 14:48:39.271, 1627991319271
102, -13.40, -158.53, 0.00, 0.00, 0.000, 0.000, 0.000, 14:48:39.271, 1627991319271
103, -100.64, -62.57, 0.00, 0.00, 0.000, 0.000, 0.000, 14:48:39.285, 1627991319285
104, 74.59, -31.36, 0.00, 0.00, 0.000, 0.000, 0.000, 14:48:39.285, 1627991319285
105, 88.89, -144.83, 0.00, 0.00, 0.000, 0.000, 0.000, 14:48:39.300, 1627991319300
106, -21.96, -176.45, 0.00, 0.00, 0.000, 0.000, 0.000, 14:48:39.300, 1627991319300
107, -98.01, -63.44, 0.00, 0.00, 0.000, 0.000, 0.000, 14:48:39.303, 1627991319303
108, 62.74, -45.43, 0.00, 0.00, 0.000, 0.000, 0.000, 14:48:39.303, 1627991319303
109, 84.94, -150.83, 0.00, 0.00, 0.000, 0.000, 0.000, 14:48:39.314, 1627991319314
110, -22.46, -184.50, 0.00, 0.00, 0.000, 0.000, 0.000, 14:48:39.314, 1627991319314
111, -98.90, -76.91, 0.00, 0.00, 0.000, 0.000, 0.000, 14:48:39.331, 1627991319331
112, 58.21, -37.73, 0.00, 0.00, 0.000, 0.000, 0.000, 14:48:39.331, 1627991319331
113, 80.47, -144.17, 0.00, 0.00, 0.000, 0.000, 0.000, 14:48:39.332, 1627991319332
114, -25.10, -177.83, 0.00, 0.00, 0.000, 0.000, 0.000, 14:48:39.332, 1627991319332
115, -103.55, -68.66, 0.00, 0.00, 0.000, 0.000, 0.000, 14:48:39.348, 1627991319348
116, 61.65, -44.06, 0.00, 0.00, 0.000, 0.000, 0.000, 14:48:39.348, 1627991319348
117, 66.90, -160.28, 0.00, 0.00, 0.000, 0.000, 0.000, 14:48:39.360, 1627991319360
118, -25.18, -185.00, 0.00, 0.00, 0.000, 0.000, 0.000, 14:48:39.360, 1627991319360
119, -102.49, -79.39, 0.00, 0.00, 0.000, 0.000, 0.000, 14:48:39.361, 1627991319361
120, 84.11, -34.86, 0.00, 0.00, 0.000, 0.000, 0.000, 14:48:39.361, 1627991319361
121, 89.95, -147.28, 0.00, 0.00, 0.000, 0.000, 0.000, 14:48:39.374, 1627991319374
122, -25.48, -212.05, 0.00, 0.00, 0.000, 0.000, 0.000, 14:48:39.374, 1627991319374
123, -76.81, -56.45, 0.00, 0.00, 0.000, 0.000, 0.000, 14:48:39.390, 1627991319390
124, 71.26, -20.86, 0.00, 0.00, 0.000, 0.000, 0.000, 14:48:39.390, 1627991319390
125, 87.00, -122.85, 0.00, 0.00, 0.000, 0.000, 0.000, 14:48:39.393, 1627991319393
126, -30.91, -144.01, 0.00, 0.00, 0.000, 0.000, 0.000, 14:48:39.393, 1627991319393
127, -84.77, -31.98, 0.00, 0.00, 0.000, 0.000, 0.000, 14:48:39.403, 1627991319403
128, 80.86, -19.79, 0.00, 0.00, 0.000, 0.000, 0.000, 14:48:39.403, 1627991319403
129, 80.94, -114.57, 0.00, 0.00, 0.000, 0.000, 0.000, 14:48:39.419, 1627991319419
130, -28.76, -117.98, 0.00, 0.00, 0.000, 0.000, 0.000, 14:48:39.419, 1627991319419
131, -71.82, 13.95, 0.00, 0.00, 0.000, 0.000, 0.000, 14:48:39.421, 1627991319421
132, 59.67, 8.75, 0.00, 0.00, 0.000, 0.000, 0.000, 14:48:39.421, 1627991319421
133, 78.08, -86.60, 0.00, 0.00, 0.000, 0.000, 0.000, 14:48:39.433, 1627991319433
134, -34.55, -124.31, 0.00, 0.00, 0.000, 0.000, 0.000, 14:48:39.433, 1627991319433
135, -80.53, -18.19, 0.00, 0.00, 0.000, 0.000, 0.000, 14:48:39.449, 1627991319449
136, 65.01, -30.86, 0.00, 0.00, 0.000, 0.000, 0.000, 14:48:39.449, 1627991319449
137, 86.02, -105.78, 0.00, 0.00, 0.000, 0.000, 0.000, 14:48:39.449, 1627991319449
138, -27.89, -114.49, 0.00, 0.00, 0.000, 0.000, 0.000, 14:48:39.449, 1627991319449
139, -92.20, -16.41, 0.00, 0.00, 0.000, 0.000, 0.000, 14:48:39.480, 1627991319480
140, 72.10, -0.05, 0.00, 0.00, 0.000, 0.000, 0.000, 14:48:39.480, 1627991319480
141, 80.34, -110.72, 0.00, 0.00, 0.000, 0.000, 0.000, 14:48:39.480, 1627991319480
142, -18.58, -137.17, 0.00, 0.00, 0.000, 0.000, 0.000, 14:48:39.480, 1627991319480
143, -97.33, -28.68, 0.00, 0.00, 0.000, 0.000, 0.000, 14:48:39.481, 1627991319481
144, 63.51, -21.10, 0.00, 0.00, 0.000, 0.000, 0.000, 14:48:39.481, 1627991319481
145, 75.99, -118.07, 0.00, 0.00, 0.000, 0.000, 0.000, 14:48:39.510, 1627991319510
146, -36.95, -157.30, 0.00, 0.00, 0.000, 0.000, 0.000, 14:48:39.510, 1627991319510
147, -76.61, -33.52, 0.00, 0.00, 0.000, 0.000, 0.000, 14:48:39.510, 1627991319510
148, 64.89, -12.91, 0.00, 0.00, 0.000, 0.000, 0.000, 14:48:39.510, 1627991319510
149, 73.07, -135.47, 0.00, 0.00, 0.000, 0.000, 0.000, 14:48:39.511, 1627991319511
150, -14.86, -167.37, 0.00, 0.00, 0.000, 0.000, 0.000, 14:48:39.511, 1627991319511
151, -63.26, -33.52, 0.00, 0.00, 0.000, 0.000, 0.000, 14:48:39.524, 1627991319524
152, 91.81, -15.43, 0.00, 0.00, 0.000, 0.000, 0.000, 14:48:39.524, 1627991319524
153, 92.44, -144.77, 0.00, 0.00, 0.000, 0.000, 0.000, 14:48:39.539, 1627991319539
154, -11.73, -142.36, 0.00, 0.00, 0.000, 0.000, 0.000, 14:48:39.539, 1627991319539
155, -62.67, -32.71, 0.00, 0.00, 0.000, 0.000, 0.000, 14:48:39.540, 1627991319540
156, 61.92, -24.90, 0.00, 0.00, 0.000, 0.000, 0.000, 14:48:39.540, 1627991319540
157, 89.55, -118.95, 0.00, 0.00, 0.000, 0.000, 0.000, 14:48:39.553, 1627991319553
158, -32.40, -172.07, 0.00, 0.00, 0.000, 0.000, 0.000, 14:48:39.553, 1627991319553
159, -61.31, -32.03, 0.00, 0.00, 0.000, 0.000, 0.000, 14:48:39.570, 1627991319570
160, 77.31, -23.36, 0.00, 0.00, 0.000, 0.000, 0.000, 14:48:39.570, 1627991319570
161, 95.20, -124.41, 0.00, 0.00, 0.000, 0.000, 0.000, 14:48:39.572, 1627991319572
162, -10.14, -155.41, 0.00, 0.00, 0.000, 0.000, 0.000, 14:48:39.572, 1627991319572
163, -50.68, -26.22, 0.00, 0.00, 0.000, 0.000, 0.000, 14:48:39.584, 1627991319584
164, 92.35, 0.48, 0.00, 0.00, 0.000, 0.000, 0.000, 14:48:39.584, 1627991319584
165, 81.69, -121.88, 0.00, 0.00, 0.000, 0.000, 0.000, 14:48:39.615, 1627991319615
166, -14.02, -152.18, 0.00, 0.00, 0.000, 0.000, 0.000, 14:48:39.615, 1627991319615
167, -52.41, -17.22, 0.00, 0.00, 0.000, 0.000, 0.000, 14:48:39.616, 1627991319616
168, 83.60, -17.75, 0.00, 0.00, 0.000, 0.000, 0.000, 14:48:39.616, 1627991319616
169, 75.51, -131.57, 0.00, 0.00, 0.000, 0.000, 0.000, 14:48:39.616, 1627991319616
170, -19.57, -149.42, 0.00, 0.00, 0.000, 0.000, 0.000, 14:48:39.616, 1627991319616
171, -59.69, -34.32, 0.00, 0.00, 0.000, 0.000, 0.000, 14:48:39.629, 1627991319629
172, 72.67, -22.95, 0.00, 0.00, 0.000, 0.000, 0.000, 14:48:39.629, 1627991319629
173, 71.87, -128.85, 0.00, 0.00, 0.000, 0.000, 0.000, 14:48:39.631, 1627991319631
174, -16.88, -147.88, 0.00, 0.00, 0.000, 0.000, 0.000, 14:48:39.631, 1627991319631
175, -32.39, -24.00, 0.00, 0.00, 0.000, 0.000, 0.000, 14:48:39.644, 1627991319644
176, 92.18, -10.28, 0.00, 0.00, 0.000, 0.000, 0.000, 14:48:39.644, 1627991319644
177, 88.38, -122.79, 0.00, 0.00, 0.000, 0.000, 0.000, 14:48:39.660, 1627991319660
178, -12.35, -140.32, 0.00, 0.00, 0.000, 0.000, 0.000, 14:48:39.660, 1627991319660
179, -25.52, -26.34, 0.00, 0.00, 0.000, 0.000, 0.000, 14:48:39.662, 1627991319662
180, 83.91, -34.49, 0.00, 0.00, 0.000, 0.000, 0.000, 14:48:39.662, 1627991319662
181, 80.23, -116.22, 0.00, 0.00, 0.000, 0.000, 0.000, 14:48:39.674, 1627991319674
182, -9.27, -142.52, 0.00, 0.00, 0.000, 0.000, 0.000, 14:48:39.674, 1627991319674
183, -36.34, -18.60, 0.00, 0.00, 0.000, 0.000, 0.000, 14:48:39.689, 1627991319689
184, 89.34, 12.23, 0.00, 0.00, 0.000, 0.000, 0.000, 14:48:39.689, 1627991319689
185, 65.28, -120.69, 0.00, 0.00, 0.000, 0.000, 0.000, 14:48:39.691, 1627991319691
186, -6.21, -129.77, 0.00, 0.00, 0.000, 0.000, 0.000, 14:48:39.691, 1627991319691
187, -27.61, -3.61, 0.00, 0.00, 0.000, 0.000, 0.000, 14:48:39.704, 1627991319704
188, 83.00, -5.88, 0.00, 0.00, 0.000, 0.000, 0.000, 14:48:39.704, 1627991319704
189, 68.83, -123.55, 0.00, 0.00, 0.000, 0.000, 0.000, 14:48:39.719, 1627991319719
190, -13.47, -148.34, 0.00, 0.00, 0.000, 0.000, 0.000, 14:48:39.719, 1627991319719
191, -28.62, -21.99, 0.00, 0.00, 0.000, 0.000, 0.000, 14:48:39.720, 1627991319720
192, 85.55, -3.52, 0.00, 0.00, 0.000, 0.000, 0.000, 14:48:39.720, 1627991319720
193, 72.20, -117.11, 0.00, 0.00, 0.000, 0.000, 0.000, 14:48:39.734, 1627991319734
194, -4.34, -139.15, 0.00, 0.00, 0.000, 0.000, 0.000, 14:48:39.734, 1627991319734
195, -16.42, -14.22, 0.00, 0.00, 0.000, 0.000, 0.000, 14:48:39.750, 1627991319750
196, 95.63, -0.50, 0.00, 0.00, 0.000, 0.000, 0.000, 14:48:39.750, 1627991319750
197, 73.09, -121.19, 0.00, 0.00, 0.000, 0.000, 0.000, 14:48:39.753, 1627991319753
198, -6.28, -153.51, 0.00, 0.00, 0.000, 0.000, 0.000, 14:48:39.753, 1627991319753
199, -19.16, -15.23, 0.00, 0.00, 0.000, 0.000, 0.000, 14:48:39.765, 1627991319765
200, 93.59, -10.62, 0.00, 0.00, 0.000, 0.000, 0.000, 14:48:39.765, 1627991319765
0, 68.43, -133.56, 0.00, 0.00, 0.000, 0.000, 0.000, 14:48:39.766, 1627991319766
1, -2.88, -142.17, 0.00, 0.00, 0.000, 0.000, 0.000, 14:48:39.778, 1627991319778
2, -21.19, -14.37, 0.00, 0.00, 0.000, 0.000, 0.000, 14:48:39.778, 1627991319778
3, 84.37, -2.59, 0.00, 0.00, 0.000, 0.000, 0.000, 14:48:39.794, 1627991319794
4, 63.12, -134.84, 0.00, 0.00, 0.000, 0.000, 0.000, 14:48:39.794, 1627991319794
5, -35.13, -149.69, 0.00, 0.00, 0.000, 0.000, 0.000, 14:48:39.795, 1627991319795
6, -24.93, -19.05, 0.00, 0.00, 0.000, 0.000, 0.000, 14:48:39.795, 1627991319795
7, 89.94, -8.52, 0.00, 0.00, 0.000, 0.000, 0.000, 14:48:39.808, 1627991319808
8, 75.61, -133.72, 0.00, 0.00, 0.000, 0.000, 0.000, 14:48:39.808, 1627991319808
9, 5.43, -132.28, 0.00, 0.00, 0.000, 0.000, 0.000, 14:48:39.826, 1627991319826
10, -13.01, -12.22, 0.00, 0.00, 0.000, 0.000, 0.000, 14:48:39.826, 1627991319826
11, 90.15, -2.43, 0.00, 0.00, 0.000, 0.000, 0.000, 14:48:39.827, 1627991319827
12, 75.28, -123.80, 0.00, 0.00, 0.000, 0.000, 0.000, 14:48:39.827, 1627991319827
13, -4.00, -142.91, 0.00, 0.00, 0.000, 0.000, 0.000, 14:48:39.840, 1627991319840
14, -21.64, -11.92, 0.00, 0.00, 0.000, 0.000, 0.000, 14:48:39.840, 1627991319840
15, 89.48, -8.76, 0.00, 0.00, 0.000, 0.000, 0.000, 14:48:39.856, 1627991319856
16, 71.61, -131.42, 0.00, 0.00, 0.000, 0.000, 0.000, 14:48:39.856, 1627991319856
17, -7.15, -142.75, 0.00, 0.00, 0.000, 0.000, 0.000, 14:48:39.859, 1627991319859
18, -18.33, -10.74, 0.00, 0.00, 0.000, 0.000, 0.000, 14:48:39.859, 1627991319859
19, 91.19, 1.34, 0.00, 0.00, 0.000, 0.000, 0.000, 14:48:39.869, 1627991319869
20, 64.37, -118.20, 0.00, 0.00, 0.000, 0.000, 0.000, 14:48:39.869, 1627991319869
21, -7.52, -130.48, 0.00, 0.00, 0.000, 0.000, 0.000, 14:48:39.884, 1627991319884
22, -37.24, -3.86, 0.00, 0.00, 0.000, 0.000, 0.000, 14:48:39.884, 1627991319884
23, 75.02, 1.44, 0.00, 0.00, 0.000, 0.000, 0.000, 14:48:39.885, 1627991319885
24, 70.35, -125.76, 0.00, 0.00, 0.000, 0.000, 0.000, 14:48:39.885, 1627991319885
25, -14.78, -143.63, 0.00, 0.00, 0.000, 0.000, 0.000, 14:48:39.915, 1627991319915
26, -33.01, -11.23, 0.00, 0.00, 0.000, 0.000, 0.000, 14:48:39.915, 1627991319915
27, 81.09, 8.03, 0.00, 0.00, 0.000, 0.000, 0.000, 14:48:39.916, 1627991319916
28, 62.83, -109.29, 0.00, 0.00, 0.000, 0.000, 0.000, 14:48:39.916, 1627991319916
29, -15.86, -128.25, 0.00, 0.00, 0.000, 0.000, 0.000, 14:48:39.916, 1627991319916
30, -68.77, -10.11, 0.00, 0.00, 0.000, 0.000, 0.000, 14:48:39.916, 1627991319916
31, 86.38, -1.34, 0.00, 0.00, 0.000, 0.000, 0.000, 14:48:39.928, 1627991319928
32, 92.42, -101.48, 0.00, 0.00, 0.000, 0.000, 0.000, 14:48:39.928, 1627991319928
33, 1.74, -134.26, 0.00, 0.00, 0.000, 0.000, 0.000, 14:48:39.944, 1627991319944
34, -30.36, -18.99, 0.00, 0.00, 0.000, 0.000, 0.000, 14:48:39.944, 1627991319944
35, 97.39, -11.57, 0.00, 0.00, 0.000, 0.000, 0.000, 14:48:39.945, 1627991319945
36, 91.03, -133.82, 0.00, 0.00, 0.000, 0.000, 0.000, 14:48:39.945, 1627991319945
37, 20.28, -148.31, 0.00, 0.00, 0.000, 0.000, 0.000, 14:48:39.959, 1627991319959
38, -20.40, -23.34, 0.00, 0.00, 0.000, 0.000, 0.000, 14:48:39.959, 1627991319959
39, 110.09, -5.01, 0.00, 0.00, 0.000, 0.000, 0.000, 14:48:39.974, 1627991319974
40, 113.41, -127.53, 0.00, 0.00, 0.000, 0.000, 0.000, 14:48:39.974, 1627991319974
41, 33.12, -149.96, 0.00, 0.00, 0.000, 0.000, 0.000, 14:48:39.977, 1627991319977
42, -2.58, -20.77, 0.00, 0.00, 0.000, 0.000, 0.000, 14:48:39.977, 1627991319977
43, 118.70, -6.96, 0.00, 0.00, 0.000, 0.000, 0.000, 14:48:39.988, 1627991319988
44, 132.58, -131.56, 0.00, 0.00, 0.000, 0.000, 0.000, 14:48:39.988, 1627991319988
45, 28.43, -163.71, 0.00, 0.00, 0.000, 0.000, 0.000, 14:48:40.005, 1627991320005
46, -30.03, -40.53, 0.00, 0.00, 0.000, 0.000, 0.000, 14:48:40.005, 1627991320005
47, 126.18, -6.35, 0.00, 0.00, 0.000, 0.000, 0.000, 14:48:40.005, 1627991320005
48, 127.28, -118.61, 0.00, 0.00, 0.000, 0.000, 0.000, 14:48:40.005, 1627991320005
49, 35.46, -135.40, 0.00, 0.00, 0.000, 0.000, 0.000, 14:48:40.019, 1627991320019
50, -15.34, -11.11, 0.00, 0.00, 0.000, 0.000, 0.000, 14:48:40.019, 1627991320019
51, 102.41, -9.75, 0.00, 0.00, 0.000, 0.000, 0.000, 14:48:40.035, 1627991320035
52, 120.07, -123.75, 0.00, 0.00, 0.000, 0.000, 0.000, 14:48:40.035, 1627991320035
53, 26.32, -152.51, 0.00, 0.00, 0.000, 0.000, 0.000, 14:48:40.036, 1627991320036
54, -21.13, -25.41, 0.00, 0.00, 0.000, 0.000, 0.000, 14:48:40.036, 1627991320036
55, 104.15, -13.62, 0.00, 0.00, 0.000, 0.000, 0.000, 14:48:40.065, 1627991320065
56, 120.88, -131.61, 0.00, 0.00, 0.000, 0.000, 0.000, 14:48:40.065, 1627991320065
57, 27.76, -148.29, 0.00, 0.00, 0.000, 0.000, 0.000, 14:48:40.066, 1627991320066
58, -35.27, -24.60, 0.00, 0.00, 0.000, 0.000, 0.000, 14:48:40.066, 1627991320066
59, 109.18, -2.11, 0.00, 0.00, 0.000, 0.000, 0.000, 14:48:40.067, 1627991320067
60, 126.53, -114.01, 0.00, 0.00, 0.000, 0.000, 0.000, 14:48:40.067, 1627991320067
61, 34.00, -130.65, 0.00, 0.00, 0.000, 0.000, 0.000, 14:48:40.095, 1627991320095
62, -33.60, -14.01, 0.00, 0.00, 0.000, 0.000, 0.000, 14:48:40.095, 1627991320095
63, 110.67, 2.00, 0.00, 0.00, 0.000, 0.000, 0.000, 14:48:40.096, 1627991320096
64, 139.43, -97.48, 0.00, 0.00, 0.000, 0.000, 0.000, 14:48:40.096, 1627991320096
65, 45.06, -119.29, 0.00, 0.00, 0.000, 0.000, 0.000, 14:48:40.097, 1627991320097
66, -31.45, -1.27, 0.00, 0.00, 0.000, 0.000, 0.000, 14:48:40.097, 1627991320097
67, 112.64, 18.82, 0.00, 0.00, 0.000, 0.000, 0.000, 14:48:40.109, 1627991320109
68, 137.17, -101.70, 0.00, 0.00, 0.000, 0.000, 0.000, 14:48:40.109, 1627991320109
69, 46.24, -113.57, 0.00, 0.00, 0.000, 0.000, 0.000, 14:48:40.125, 1627991320125
70, -21.63, 2.89, 0.00, 0.00, 0.000, 0.000, 0.000, 14:48:40.125, 1627991320125
71, 116.49, 19.67, 0.00, 0.00, 0.000, 0.000, 0.000, 14:48:40.126, 1627991320126
72, 142.59, -88.38, 0.00, 0.00, 0.000, 0.000, 0.000, 14:48:40.126, 1627991320126
73, 44.65, -115.32, 0.00, 0.00, 0.000, 0.000, 0.000, 14:48:40.139, 1627991320139
74, -27.88, 3.20, 0.00, 0.00, 0.000, 0.000, 0.000, 14:48:40.139, 1627991320139
75, 109.36, 22.76, 0.00, 0.00, 0.000, 0.000, 0.000, 14:48:40.154, 1627991320154
76, 141.63, -79.79, 0.00, 0.00, 0.000, 0.000, 0.000, 14:48:40.154, 1627991320154
77, 45.08, -110.50, 0.00, 0.00, 0.000, 0.000, 0.000, 14:48:40.155, 1627991320155
78, -41.81, 2.47, 0.00, 0.00, 0.000, 0.000, 0.000, 14:48:40.155, 1627991320155
79, 109.96, 33.06, 0.00, 0.00, 0.000, 0.000, 0.000, 14:48:40.168, 1627991320168
80, 137.12, -86.80, 0.00, 0.00, 0.000, 0.000, 0.000, 14:48:40.168, 1627991320168
81, 32.71, -111.12, 0.00, 0.00, 0.000, 0.000, 0.000, 14:48:40.184, 1627991320184
82, -40.85, 5.23, 0.00, 0.00, 0.000, 0.000, 0.000, 14:48:40.184, 1627991320184
83, 103.84, 24.72, 0.00, 0.00, 0.000, 0.000, 0.000, 14:48:40.186, 1627991320186
84, 130.92, -80.99, 0.00, 0.00, 0.000, 0.000, 0.000, 14:48:40.186, 1627991320186
85, 34.65, -110.32, 0.00, 0.00, 0.000, 0.000, 0.000, 14:48:40.199, 1627991320199
86, -45.23, -9.78, 0.00, 0.00, 0.000, 0.000, 0.000, 14:48:40.199, 1627991320199
87, 111.06, 16.43, 0.00, 0.00, 0.000, 0.000, 0.000, 14:48:40.230, 1627991320230
88, 130.92, -97.35, 0.00, 0.00, 0.000, 0.000, 0.000, 14:48:40.230, 1627991320230
89, 28.87, -123.15, 0.00, 0.00, 0.000, 0.000, 0.000, 14:48:40.231, 1627991320231
90, -53.51, -15.78, 0.00, 0.00, 0.000, 0.000, 0.000, 14:48:40.231, 1627991320231
91, 96.56, 9.76, 0.00, 0.00, 0.000, 0.000, 0.000, 14:48:40.234, 1627991320234
92, 124.78, -95.60, 0.00, 0.00, 0.000, 0.000, 0.000, 14:48:40.234, 1627991320234
93, 28.87, -115.93, 0.00, 0.00, 0.000, 0.000, 0.000, 14:48:40.247, 1627991320247
94, -45.64, -1.56, 0.00, 0.00, 0.000, 0.000, 0.000, 14:48:40.247, 1627991320247
95, 108.98, 31.73, 0.00, 0.00, 0.000, 0.000, 0.000, 14:48:40.248, 1627991320248
96, 130.63, -84.73, 0.00, 0.00, 0.000, 0.000, 0.000, 14:48:40.248, 1627991320248
97, 25.16, -110.94, 0.00, 0.00, 0.000, 0.000, 0.000, 14:48:40.259, 1627991320259
98, -34.31, 7.23, 0.00, 0.00, 0.000, 0.000, 0.000, 14:48:40.259, 1627991320259
99, 122.06, 48.08, 0.00, 0.00, 0.000, 0.000, 0.000, 14:48:40.274, 1627991320274
100, 151.89, -49.19, 0.00, 0.00, 0.000, 0.000, 0.000, 14:48:40.274, 1627991320274
101, 59.71, -56.66, 0.00, 0.00, 0.000, 0.000, 0.000, 14:48:40.276, 1627991320276
102, -19.80, 50.31, 0.00, 0.00, 0.000, 0.000, 0.000, 14:48:40.276, 1627991320276
103, 159.67, 87.27, 0.00, 0.00, 0.000, 0.000, 0.000, 14:48:40.288, 1627991320288
104, 201.18, 22.82, 0.00, 0.00, 0.000, 0.000, 0.000, 14:48:40.288, 1627991320288
105, 108.26, 24.41, 0.00, 0.00, 0.000, 0.000, 0.000, 14:48:40.304, 1627991320304
106, 36.97, 131.77, 0.00, 0.00, 0.000, 0.000, 0.000, 14:48:40.304, 1627991320304
107, 197.52, 197.09, 0.00, 0.00, 0.000, 0.000, 0.000, 14:48:40.305, 1627991320305
108, 227.14, 102.41, 0.00, 0.00, 0.000, 0.000, 0.000, 14:48:40.305, 1627991320305
109, 129.63, 76.50, 0.00, 0.00, 0.000, 0.000, 0.000, 14:48:40.318, 1627991320318
110, 59.26, 176.10, 0.00, 0.00, 0.000, 0.000, 0.000, 14:48:40.318, 1627991320318
111, 196.79, 196.41, 0.00, 0.00, 0.000, 0.000, 0.000, 14:48:40.334, 1627991320334
112, 204.93, 68.94, 0.00, 0.00, 0.000, 0.000, 0.000, 14:48:40.334, 1627991320334
113, 101.79, 30.00, 0.00, 0.00, 0.000, 0.000, 0.000, 14:48:40.336, 1627991320336
114, 31.49, 136.11, 0.00, 0.00, 0.000, 0.000, 0.000, 14:48:40.336, 1627991320336
115, 166.01, 155.19, 0.00, 0.00, 0.000, 0.000, 0.000, 14:48:40.349, 1627991320349
116, 165.52, 21.99, 0.00, 0.00, 0.000, 0.000, 0.000, 14:48:40.349, 1627991320349
117, 62.02, -15.98, 0.00, 0.00, 0.000, 0.000, 0.000, 14:48:40.364, 1627991320364
118, -12.24, 81.57, 0.00, 0.00, 0.000, 0.000, 0.000, 14:48:40.364, 1627991320364
119, 104.13, 78.30, 0.00, 0.00, 0.000, 0.000, 0.000, 14:48:40.365, 1627991320365
120, 120.54, -30.68, 0.00, 0.00, 0.000, 0.000, 0.000, 14:48:40.365, 1627991320365
121, 5.87, -80.15, 0.00, 0.00, 0.000, 0.000, 0.000, 14:48:40.379, 1627991320379
122, -74.18, 5.16, 0.00, 0.00, 0.000, 0.000, 0.000, 14:48:40.379, 1627991320379
123, 77.65, 49.58, 0.00, 0.00, 0.000, 0.000, 0.000, 14:48:40.394, 1627991320394
124, 86.21, -74.33, 0.00, 0.00, 0.000, 0.000, 0.000, 14:48:40.394, 1627991320394
125, -18.31, -105.00, 0.00, 0.00, 0.000, 0.000, 0.000, 14:48:40.395, 1627991320395
126, -73.45, 2.21, 0.00, 0.00, 0.000, 0.000, 0.000, 14:48:40.395, 1627991320395
127, 63.74, 31.22, 0.00, 0.00, 0.000, 0.000, 0.000, 14:48:40.412, 1627991320412
128, 75.53, -88.29, 0.00, 0.00, 0.000, 0.000, 0.000, 14:48:40.412, 1627991320412
129, -33.13, -130.11, 0.00, 0.00, 0.000, 0.000, 0.000, 14:48:40.428, 1627991320428
130, -88.00, -22.17, 0.00, 0.00, 0.000, 0.000, 0.000, 14:48:40.428, 1627991320428
131, 42.39, -10.41, 0.00, 0.00, 0.000, 0.000, 0.000, 14:48:40.430, 1627991320430
132, 55.47, -110.89, 0.00, 0.00, 0.000, 0.000, 0.000, 14:48:40.430, 1627991320430
133, -47.69, -163.75, 0.00, 0.00, 0.000, 0.000, 0.000, 14:48:40.455, 1627991320455
134, -89.66, -50.14, 0.00, 0.00, 0.000, 0.000, 0.000, 14:48:40.455, 1627991320455
135, 37.67, -31.44, 0.00, 0.00, 0.000, 0.000, 0.000, 14:48:40.456, 1627991320456
136, 51.48, -130.80, 0.00, 0.00, 0.000, 0.000, 0.000, 14:48:40.456, 1627991320456
137, -56.24, -167.57, 0.00, 0.00, 0.000, 0.000, 0.000, 14:48:40.457, 1627991320457
138, -107.17, -55.77, 0.00, 0.00, 0.000, 0.000, 0.000, 14:48:40.457, 1627991320457
139, 23.85, -41.32, 0.00, 0.00, 0.000, 0.000, 0.000, 14:48:40.469, 1627991320469
140, 32.63, -157.66, 0.00, 0.00, 0.000, 0.000, 0.000, 14:48:40.469, 1627991320469
141, -66.49, -177.70, 0.00, 0.00, 0.000, 0.000, 0.000, 14:48:40.485, 1627991320485
142, -119.06, -80.09, 0.00, 0.00, 0.000, 0.000, 0.000, 14:48:40.485, 1627991320485
143, 3.18, -42.08, 0.00, 0.00, 0.000, 0.000, 0.000, 14:48:40.486, 1627991320486
144, 5.37, -162.47, 0.00, 0.00, 0.000, 0.000, 0.000, 14:48:40.486, 1627991320486
145, -79.11, -186.50, 0.00, 0.00, 0.000, 0.000, 0.000, 14:48:40.514, 1627991320514
146, -124.09, -71.67, 0.00, 0.00, 0.000, 0.000, 0.000, 14:48:40.514, 1627991320514
147, 6.91, -53.64, 0.00, 0.00, 0.000, 0.000, 0.000, 14:48:40.515, 1627991320515
148, 5.72, -165.72, 0.00, 0.00, 0.000, 0.000, 0.000, 14:48:40.515, 1627991320515
149, -78.04, -195.22, 0.00, 0.00, 0.000, 0.000, 0.000, 14:48:40.517, 1627991320517
150, -107.03, -80.13, 0.00, 0.00, 0.000, 0.000, 0.000, 14:48:40.517, 1627991320517
151, 14.56, -66.13, 0.00, 0.00, 0.000, 0.000, 0.000, 14:48:40.528, 1627991320528
152, 15.33, -175.72, 0.00, 0.00, 0.000, 0.000, 0.000, 14:48:40.528, 1627991320528
153, -69.99, -207.23, 0.00, 0.00, 0.000, 0.000, 0.000, 14:48:40.545, 1627991320545
154, -94.20, -94.08, 0.00, 0.00, 0.000, 0.000, 0.000, 14:48:40.545, 1627991320545
155, 10.92, -79.75, 0.00, 0.00, 0.000, 0.000, 0.000, 14:48:40.546, 1627991320546
156, 14.45, -178.71, 0.00, 0.00, 0.000, 0.000, 0.000, 14:48:40.546, 1627991320546
157, -67.33, -208.13, 0.00, 0.00, 0.000, 0.000, 0.000, 14:48:40.575, 1627991320575
158, -76.05, -99.37, 0.00, 0.00, 0.000, 0.000, 0.000, 14:48:40.575, 1627991320575
159, 39.26, -67.71, 0.00, 0.00, 0.000, 0.000, 0.000, 14:48:40.577, 1627991320577
160, 12.28, -191.33, 0.00, 0.00, 0.000, 0.000, 0.000, 14:48:40.577, 1627991320577
161, -62.27, -213.78, 0.00, 0.00, 0.000, 0.000, 0.000, 14:48:40.578, 1627991320578
162, -78.34, -94.44, 0.00, 0.00, 0.000, 0.000, 0.000, 14:48:40.578, 1627991320578
163, 25.40, -66.04, 0.00, 0.00, 0.000, 0.000, 0.000, 14:48:40.621, 1627991320621
164, 3.33, -193.18, 0.00, 0.00, 0.000, 0.000, 0.000, 14:48:40.621, 1627991320621
165, -64.81, -213.25, 0.00, 0.00, 0.000, 0.000, 0.000, 14:48:40.622, 1627991320622
166, -91.51, -109.38, 0.00, 0.00, 0.000, 0.000, 0.000, 14:48:40.622, 1627991320622
167, 26.72, -62.29, 0.00, 0.00, 0.000, 0.000, 0.000, 14:48:40.622, 1627991320622
168, 21.35, -160.67, 0.00, 0.00, 0.000, 0.000, 0.000, 14:48:40.622, 1627991320622
169, -63.17, -192.42, 0.00, 0.00, 0.000, 0.000, 0.000, 14:48:40.623, 1627991320623
170, -80.88, -81.75, 0.00, 0.00, 0.000, 0.000, 0.000, 14:48:40.623, 1627991320623
171, 36.26, -47.27, 0.00, 0.00, 0.000, 0.000, 0.000, 14:48:40.634, 1627991320634
172, 22.74, -161.31, 0.00, 0.00, 0.000, 0.000, 0.000, 14:48:40.634, 1627991320634
173, -48.63, -189.94, 0.00, 0.00, 0.000, 0.000, 0.000, 14:48:40.635, 1627991320635
174, -71.49, -89.82, 0.00, 0.00, 0.000, 0.000, 0.000, 14:48:40.635, 1627991320635
175, 37.89, -43.24, 0.00, 0.00, 0.000, 0.000, 0.000, 14:48:40.682, 1627991320682
176, 25.78, -151.91, 0.00, 0.00, 0.000, 0.000, 0.000, 14:48:40.682, 1627991320682
177, -43.20, -183.86, 0.00, 0.00, 0.000, 0.000, 0.000, 14:48:40.683, 1627991320683
178, -60.83, -73.07, 0.00, 0.00, 0.000, 0.000, 0.000, 14:48:40.683, 1627991320683
179, 43.06, -43.68, 0.00, 0.00, 0.000, 0.000, 0.000, 14:48:40.684, 1627991320684
180, 30.96, -152.06, 0.00, 0.00, 0.000, 0.000, 0.000, 14:48:40.684, 1627991320684
181, -41.45, -187.86, 0.00, 0.00, 0.000, 0.000, 0.000, 14:48:40.685, 1627991320685
182, -39.65, -75.43, 0.00, 0.00, 0.000, 0.000, 0.000, 14:48:40.685, 1627991320685
183, 61.34, -39.69, 0.00, 0.00, 0.000, 0.000, 0.000, 14:48:40.712, 1627991320712
184, 39.23, -147.51, 0.00, 0.00, 0.000, 0.000, 0.000, 14:48:40.712, 1627991320712
185, -32.84, -176.94, 0.00, 0.00, 0.000, 0.000, 0.000, 14:48:40.713, 1627991320713
186, -47.35, -68.13, 0.00, 0.00, 0.000, 0.000, 0.000, 14:48:40.713, 1627991320713
187, 53.13, -27.09, 0.00, 0.00, 0.000, 0.000, 0.000, 14:48:40.713, 1627991320713
188, 36.56, -134.68, 0.00, 0.00, 0.000, 0.000, 0.000, 14:48:40.713, 1627991320713
189, -35.87, -168.67, 0.00, 0.00, 0.000, 0.000, 0.000, 14:48:40.714, 1627991320714
190, -48.08, -56.83, 0.00, 0.00, 0.000, 0.000, 0.000, 14:48:40.714, 1627991320714
191, 47.38, -27.27, 0.00, 0.00, 0.000, 0.000, 0.000, 14:48:40.739, 1627991320739
192, 46.80, -127.96, 0.00, 0.00, 0.000, 0.000, 0.000, 14:48:40.739, 1627991320739
193, -38.72, -174.72, 0.00, 0.00, 0.000, 0.000, 0.000, 14:48:40.744, 1627991320744
194, -66.25, -90.77, 0.00, 0.00, 0.000, 0.000, 0.000, 14:48:40.744, 1627991320744
195, 31.53, -60.87, 0.00, 0.00, 0.000, 0.000, 0.000, 14:48:40.755, 1627991320755
196, 23.30, -149.95, 0.00, 0.00, 0.000, 0.000, 0.000, 14:48:40.755, 1627991320755
197, -61.39, -209.07, 0.00, 0.00, 0.000, 0.000, 0.000, 14:48:40.755, 1627991320755
198, -62.68, -92.05, 0.00, 0.00, 0.000, 0.000, 0.000, 14:48:40.755, 1627991320755
199, 39.57, -45.88, 0.00, 0.00, 0.000, 0.000, 0.000, 14:48:40.769, 1627991320769
200, 13.32, -154.47, 0.00, 0.00, 0.000, 0.000, 0.000, 14:48:40.769, 1627991320769
0, -56.21, -188.23, 0.00, 0.00, 0.000, 0.000, 0.000, 14:48:40.770, 1627991320770
1, -71.71, -88.63, 0.00, 0.00, 0.000, 0.000, 0.000, 14:48:40.786, 1627991320786
2, 39.57, -37.74, 0.00, 0.00, 0.000, 0.000, 0.000, 14:48:40.786, 1627991320786
3, 9.85, -144.77, 0.00, 0.00, 0.000, 0.000, 0.000, 14:48:40.800, 1627991320800
4, -48.25, -177.72, 0.00, 0.00, 0.000, 0.000, 0.000, 14:48:40.800, 1627991320800
5, -60.45, -84.84, 0.00, 0.00, 0.000, 0.000, 0.000, 14:48:40.801, 1627991320801
6, 44.55, -36.63, 0.00, 0.00, 0.000, 0.000, 0.000, 14:48:40.801, 1627991320801
7, 28.47, -141.44, 0.00, 0.00, 0.000, 0.000, 0.000, 14:48:40.814, 1627991320814
8, -50.54, -184.06, 0.00, 0.00, 0.000, 0.000, 0.000, 14:48:40.814, 1627991320814
9, -43.27, -75.10, 0.00, 0.00, 0.000, 0.000, 0.000, 14:48:40.845, 1627991320845
10, 59.16, -33.14, 0.00, 0.00, 0.000, 0.000, 0.000, 14:48:40.845, 1627991320845
11, 31.95, -144.79, 0.00, 0.00, 0.000, 0.000, 0.000, 14:48:40.847, 1627991320847
12, -44.85, -182.59, 0.00, 0.00, 0.000, 0.000, 0.000, 14:48:40.847, 1627991320847
13, -37.06, -82.35, 0.00, 0.00, 0.000, 0.000, 0.000, 14:48:40.848, 1627991320848
14, 62.16, -34.30, 0.00, 0.00, 0.000, 0.000, 0.000, 14:48:40.848, 1627991320848
15, 34.16, -141.74, 0.00, 0.00, 0.000, 0.000, 0.000, 14:48:40.860, 1627991320860
16, -44.66, -169.92, 0.00, 0.00, 0.000, 0.000, 0.000, 14:48:40.860, 1627991320860
17, -56.94, -69.03, 0.00, 0.00, 0.000, 0.000, 0.000, 14:48:40.860, 1627991320860
18, 50.97, -6.71, 0.00, 0.00, 0.000, 0.000, 0.000, 14:48:40.860, 1627991320860
19, 26.20, -109.24, 0.00, 0.00, 0.000, 0.000, 0.000, 14:48:40.906, 1627991320906
20, -70.91, -164.90, 0.00, 0.00, 0.000, 0.000, 0.000, 14:48:40.906, 1627991320906
21, -82.44, -54.14, 0.00, 0.00, 0.000, 0.000, 0.000, 14:48:40.907, 1627991320907
22, 34.70, -5.44, 0.00, 0.00, 0.000, 0.000, 0.000, 14:48:40.907, 1627991320907
23, 19.43, -107.73, 0.00, 0.00, 0.000, 0.000, 0.000, 14:48:40.909, 1627991320909
24, -64.00, -148.05, 0.00, 0.00, 0.000, 0.000, 0.000, 14:48:40.909, 1627991320909
25, -54.22, -43.73, 0.00, 0.00, 0.000, 0.000, 0.000, 14:48:40.909, 1627991320909
26, 73.31, 6.41, 0.00, 0.00, 0.000, 0.000, 0.000, 14:48:40.909, 1627991320909
27, 55.19, -93.32, 0.00, 0.00, 0.000, 0.000, 0.000, 14:48:40.919, 1627991320919
28, -10.15, -134.15, 0.00, 0.00, 0.000, 0.000, 0.000, 14:48:40.919, 1627991320919
29, -18.06, -59.02, 0.00, 0.00, 0.000, 0.000, 0.000, 14:48:40.920, 1627991320920
30, 95.26, 6.56, 0.00, 0.00, 0.000, 0.000, 0.000, 14:48:40.920, 1627991320920
31, 74.22, -94.34, 0.00, 0.00, 0.000, 0.000, 0.000, 14:48:40.933, 1627991320933
32, -1.55, -134.57, 0.00, 0.00, 0.000, 0.000, 0.000, 14:48:40.933, 1627991320933
33, 2.72, -33.68, 0.00, 0.00, 0.000, 0.000, 0.000, 14:48:40.952, 1627991320952
34, 83.38, 1.23, 0.00, 0.00, 0.000, 0.000, 0.000, 14:48:40.952, 1627991320952
35, 52.84, -121.91, 0.00, 0.00, 0.000, 0.000, 0.000, 14:48:40.958, 1627991320958
36, 13.37, -103.80, 0.00, 0.00, 0.000, 0.000, 0.000, 14:48:40.958, 1627991320958
37, 14.07, 11.30, 0.00, 0.00, 0.000, 0.000, 0.000, 14:48:40.965, 1627991320965
38, 132.97, 56.24, 0.00, 0.00, 0.000, 0.000, 0.000, 14:48:40.965, 1627991320965
39, 149.65, 23.97, 0.00, 0.00, 0.000, 0.000, 0.000, 14:48:40.979, 1627991320979
40, 91.72, 13.66, 0.00, 0.00, 0.000, 0.000, 0.000, 14:48:40.979, 1627991320979
41, 117.00, 139.85, 0.00, 0.00, 0.000, 0.000, 0.000, 14:48:40.980, 1627991320980
42, 233.73, 164.08, 0.00, 0.00, 0.000, 0.000, 0.000, 14:48:40.980, 1627991320980
43, 261.31, 102.66, 0.00, 0.00, 0.000, 0.000, 0.000, 14:48:41.010, 1627991321010
44, 170.11, 107.84, 0.00, 0.00, 0.000, 0.000, 0.000, 14:48:41.011, 1627991321011
45, 175.44, 241.86, 0.00, 0.00, 0.000, 0.000, 0.000, 14:48:41.012, 1627991321012
46, 256.75, 328.44, 0.00, 0.00, 0.000, 0.000, 0.000, 14:48:41.012, 1627991321012
47, 267.51, 224.84, 0.00, 0.00, 0.000, 0.000, 0.000, 14:48:41.012, 1627991321012
48, 166.27, 147.02, 0.00, 0.00, 0.000, 0.000, 0.000, 14:48:41.012, 1627991321012
49, 135.59, 273.42, 0.00, 0.00, 0.000, 0.000, 0.000, 14:48:41.073, 1627991321073
50, 278.19, 346.23, 0.00, 0.00, 0.000, 0.000, 0.000, 14:48:41.073, 1627991321073
51, 248.69, 200.07, 0.00, 0.00, 0.000, 0.000, 0.000, 14:48:41.074, 1627991321074
52, 118.32, 125.13, 0.00, 0.00, 0.000, 0.000, 0.000, 14:48:41.074, 1627991321074
53, 117.08, 211.03, 0.00, 0.00, 0.000, 0.000, 0.000, 14:48:41.074, 1627991321074
54, 186.58, 215.62, 0.00, 0.00, 0.000, 0.000, 0.000, 14:48:41.074, 1627991321074
55, 171.03, 90.16, 0.00, 0.00, 0.000, 0.000, 0.000, 14:48:41.079, 1627991321079
56, 91.31, 104.38, 0.00, 0.00, 0.000, 0.000, 0.000, 14:48:41.079, 1627991321079
57, 83.06, 182.52, 0.00, 0.00, 0.000, 0.000, 0.000, 14:48:41.085, 1627991321085
58, 215.45, 240.61, 0.00, 0.00, 0.000, 0.000, 0.000, 14:48:41.085, 1627991321085
59, 163.79, 98.62, 0.00, 0.00, 0.000, 0.000, 0.000, 14:48:41.087, 1627991321087
60, 62.41, 19.49, 0.00, 0.00, 0.000, 0.000, 0.000, 14:48:41.087, 1627991321087
61, 32.36, 116.40, 0.00, 0.00, 0.000, 0.000, 0.000, 14:48:41.088, 1627991321088
62, 139.74, 139.48, 0.00, 0.00, 0.000, 0.000, 0.000, 14:48:41.088, 1627991321088
63, 171.29, 57.05, 0.00, 0.00, 0.000, 0.000, 0.000, 14:48:41.099, 1627991321099
64, 63.02, -0.10, 0.00, 0.00, 0.000, 0.000, 0.000, 14:48:41.099, 1627991321099
65, 15.47, 85.52, 0.00, 0.00, 0.000, 0.000, 0.000, 14:48:41.100, 1627991321100
66, 149.93, 131.20, 0.00, 0.00, 0.000, 0.000, 0.000, 14:48:41.100, 1627991321100
67, 183.97, 16.64, 0.00, 0.00, 0.000, 0.000, 0.000, 14:48:41.114, 1627991321114
68, 78.45, -39.68, 0.00, 0.00, 0.000, 0.000, 0.000, 14:48:41.114, 1627991321114
69, 21.01, 57.59, 0.00, 0.00, 0.000, 0.000, 0.000, 14:48:41.132, 1627991321132
70, 156.03, 103.35, 0.00, 0.00, 0.000, 0.000, 0.000, 14:48:41.132, 1627991321132
71, 189.48, 3.41, 0.00, 0.00, 0.000, 0.000, 0.000, 14:48:41.134, 1627991321134
72, 71.98, -65.48, 0.00, 0.00, 0.000, 0.000, 0.000, 14:48:41.134, 1627991321134
73, -6.53, 20.26, 0.00, 0.00, 0.000, 0.000, 0.000, 14:48:41.144, 1627991321144
74, 133.60, 60.74, 0.00, 0.00, 0.000, 0.000, 0.000, 14:48:41.144, 1627991321144
75, 146.20, -43.83, 0.00, 0.00, 0.000, 0.000, 0.000, 14:48:41.176, 1627991321176
76, 52.94, -77.03, 0.00, 0.00, 0.000, 0.000, 0.000, 14:48:41.176, 1627991321176
77, -11.88, 17.23, 0.00, 0.00, 0.000, 0.000, 0.000, 14:48:41.181, 1627991321181
78, 140.08, 76.48, 0.00, 0.00, 0.000, 0.000, 0.000, 14:48:41.181, 1627991321181
79, 164.98, -39.91, 0.00, 0.00, 0.000, 0.000, 0.000, 14:48:41.182, 1627991321182
80, 59.52, -80.84, 0.00, 0.00, 0.000, 0.000, 0.000, 14:48:41.182, 1627991321182
81, -7.92, 3.35, 0.00, 0.00, 0.000, 0.000, 0.000, 14:48:41.190, 1627991321190
82, 128.39, 62.17, 0.00, 0.00, 0.000, 0.000, 0.000, 14:48:41.190, 1627991321190
83, 151.04, -52.92, 0.00, 0.00, 0.000, 0.000, 0.000, 14:48:41.195, 1627991321195
84, 46.47, -99.98, 0.00, 0.00, 0.000, 0.000, 0.000, 14:48:41.195, 1627991321195
85, -21.86, 2.20, 0.00, 0.00, 0.000, 0.000, 0.000, 14:48:41.204, 1627991321204
86, 111.02, 44.82, 0.00, 0.00, 0.000, 0.000, 0.000, 14:48:41.204, 1627991321204
87, 143.94, -69.45, 0.00, 0.00, 0.000, 0.000, 0.000, 14:48:41.220, 1627991321220
88, 47.55, -113.03, 0.00, 0.00, 0.000, 0.000, 0.000, 14:48:41.220, 1627991321220
89, -27.26, -8.61, 0.00, 0.00, 0.000, 0.000, 0.000, 14:48:41.221, 1627991321221
90, 115.58, 31.53, 0.00, 0.00, 0.000, 0.000, 0.000, 14:48:41.221, 1627991321221
91, 140.45, -72.19, 0.00, 0.00, 0.000, 0.000, 0.000, 14:48:41.251, 1627991321251
92, 38.50, -114.04, 0.00, 0.00, 0.000, 0.000, 0.000, 14:48:41.251, 1627991321251
93, -39.56, -21.49, 0.00, 0.00, 0.000, 0.000, 0.000, 14:48:41.252, 1627991321252
94, 102.04, 37.42, 0.00, 0.00, 0.000, 0.000, 0.000, 14:48:41.252, 1627991321252
95, 149.91, -63.43, 0.00, 0.00, 0.000, 0.000, 0.000, 14:48:41.252, 1627991321252
96, 71.70, -82.44, 0.00, 0.00, 0.000, 0.000, 0.000, 14:48:41.252, 1627991321252
97, 32.60, 55.15, 0.00, 0.00, 0.000, 0.000, 0.000, 14:48:41.263, 1627991321263
98, 154.96, 68.26, 0.00, 0.00, 0.000, 0.000, 0.000, 14:48:41.263, 1627991321263
99, 170.78, -45.26, 0.00, 0.00, 0.000, 0.000, 0.000, 14:48:41.279, 1627991321279
100, 66.10, -97.24, 0.00, 0.00, 0.000, 0.000, 0.000, 14:48:41.279, 1627991321279
101, 11.52, 15.96, 0.00, 0.00, 0.000, 0.000, 0.000, 14:48:41.280, 1627991321280
102, 137.48, 50.43, 0.00, 0.00, 0.000, 0.000, 0.000, 14:48:41.280, 1627991321280
103, 143.79, -81.06, 0.00, 0.00, 0.000, 0.000, 0.000, 14:48:41.293, 1627991321293
104, 65.18, -110.80, 0.00, 0.00, 0.000, 0.000, 0.000, 14:48:41.293, 1627991321293
105, -34.59, -34.56, 0.00, 0.00, 0.000, 0.000, 0.000, 14:48:41.310, 1627991321310
106, 87.12, 19.90, 0.00, 0.00, 0.000, 0.000, 0.000, 14:48:41.310, 1627991321310
107, 179.50, -28.75, 0.00, 0.00, 0.000, 0.000, 0.000, 14:48:41.311, 1627991321311
108, 91.96, -44.05, 0.00, 0.00, 0.000, 0.000, 0.000, 14:48:41.311, 1627991321311
109, 31.30, 69.64, 0.00, 0.00, 0.000, 0.000, 0.000, 14:48:41.323, 1627991321323
110, 125.75, 77.90, 0.00, 0.00, 0.000, 0.000, 0.000, 14:48:41.323, 1627991321323
111, 147.97, -46.02, 0.00, 0.00, 0.000, 0.000, 0.000, 14:48:41.339, 1627991321339
112, 65.93, -40.34, 0.00, 0.00, 0.000, 0.000, 0.000, 14:48:41.339, 1627991321339
113, 4.19, 56.28, 0.00, 0.00, 0.000, 0.000, 0.000, 14:48:41.340, 1627991321340
114, 147.04, 95.98, 0.00, 0.00, 0.000, 0.000, 0.000, 14:48:41.340, 1627991321340
115, 154.95, -42.72, 0.00, 0.00, 0.000, 0.000, 0.000, 14:48:41.353, 1627991321353
116, 74.46, -44.37, 0.00, 0.00, 0.000, 0.000, 0.000, 14:48:41.353, 1627991321353
117, -12.89, 60.33, 0.00, 0.00, 0.000, 0.000, 0.000, 14:48:41.371, 1627991321371
118, 109.37, 64.49, 0.00, 0.00, 0.000, 0.000, 0.000, 14:48:41.371, 1627991321371
119, 162.04, -42.57, 0.00, 0.00, 0.000, 0.000, 0.000, 14:48:41.372, 1627991321372
120, 63.79, -81.11, 0.00, 0.00, 0.000, 0.000, 0.000, 14:48:41.372, 1627991321372
121, -11.91, 53.51, 0.00, 0.00, 0.000, 0.000, 0.000, 14:48:41.385, 1627991321385
122, 117.84, 71.63, 0.00, 0.00, 0.000, 0.000, 0.000, 14:48:41.385, 1627991321385
123, 161.02, -63.90, 0.00, 0.00, 0.000, 0.000, 0.000, 14:48:41.400, 1627991321400
124, 74.38, -77.02, 0.00, 0.00, 0.000, 0.000, 0.000, 14:48:41.400, 1627991321400
125, -8.54, 27.89, 0.00, 0.00, 0.000, 0.000, 0.000, 14:48:41.402, 1627991321402
126, 123.82, 59.30, 0.00, 0.00, 0.000, 0.000, 0.000, 14:48:41.402, 1627991321402
127, 160.81, -64.14, 0.00, 0.00, 0.000, 0.000, 0.000, 14:48:41.414, 1627991321414
128, 85.02, -82.14, 0.00, 0.00, 0.000, 0.000, 0.000, 14:48:41.414, 1627991321414
129, 2.02, 44.51, 0.00, 0.00, 0.000, 0.000, 0.000, 14:48:41.429, 1627991321429
130, 115.71, 54.26, 0.00, 0.00, 0.000, 0.000, 0.000, 14:48:41.429, 1627991321429
131, 174.30, -62.88, 0.00, 0.00, 0.000, 0.000, 0.000, 14:48:41.435, 1627991321435
132, 79.98, -96.19, 0.00, 0.00, 0.000, 0.000, 0.000, 14:48:41.435, 1627991321435
133, -5.56, 30.31, 0.00, 0.00, 0.000, 0.000, 0.000, 14:48:41.444, 1627991321444
134, 112.67, 37.51, 0.00, 0.00, 0.000, 0.000, 0.000, 14:48:41.444, 1627991321444
135, 187.48, -60.87, 0.00, 0.00, 0.000, 0.000, 0.000, 14:48:41.460, 1627991321460
136, 92.17, -69.09, 0.00, 0.00, 0.000, 0.000, 0.000, 14:48:41.460, 1627991321460
137, -0.60, 42.60, 0.00, 0.00, 0.000, 0.000, 0.000, 14:48:41.462, 1627991321462
138, 125.12, 53.97, 0.00, 0.00, 0.000, 0.000, 0.000, 14:48:41.462, 1627991321462
139, 178.98, -81.97, 0.00, 0.00, 0.000, 0.000, 0.000, 14:48:41.474, 1627991321474
140, 81.14, -96.61, 0.00, 0.00, 0.000, 0.000, 0.000, 14:48:41.474, 1627991321474
141, -8.46, 26.62, 0.00, 0.00, 0.000, 0.000, 0.000, 14:48:41.490, 1627991321490
142, 142.21, 53.94, 0.00, 0.00, 0.000, 0.000, 0.000, 14:48:41.490, 1627991321490
143, 202.77, -46.87, 0.00, 0.00, 0.000, 0.000, 0.000, 14:48:41.497, 1627991321497
144, 95.42, -69.03, 0.00, 0.00, 0.000, 0.000, 0.000, 14:48:41.497, 1627991321497
145, -10.52, 35.07, 0.00, 0.00, 0.000, 0.000, 0.000, 14:48:41.504, 1627991321504
146, 141.64, 65.40, 0.00, 0.00, 0.000, 0.000, 0.000, 14:48:41.504, 1627991321504
147, 195.86, -68.03, 0.00, 0.00, 0.000, 0.000, 0.000, 14:48:41.522, 1627991321522
148, 92.35, -103.14, 0.00, 0.00, 0.000, 0.000, 0.000, 14:48:41.522, 1627991321522
149, 0.33, 35.69, 0.00, 0.00, 0.000, 0.000, 0.000, 14:48:41.537, 1627991321537
150, 129.89, 43.56, 0.00, 0.00, 0.000, 0.000, 0.000, 14:48:41.537, 1627991321537
151, 190.20, -93.16, 0.00, 0.00, 0.000, 0.000, 0.000, 14:48:41.537, 1627991321537
152, 87.99, -101.37, 0.00, 0.00, 0.000, 0.000, 0.000, 14:48:41.537, 1627991321537
153, 5.07, 31.93, 0.00, 0.00, 0.000, 0.000, 0.000, 14:48:41.551, 1627991321551
154, 138.04, 49.25, 0.00, 0.00, 0.000, 0.000, 0.000, 14:48:41.551, 1627991321551
155, 181.17, -84.81, 0.00, 0.00, 0.000, 0.000, 0.000, 14:48:41.568, 1627991321568
156, 95.59, -101.70, 0.00, 0.00, 0.000, 0.000, 0.000, 14:48:41.568, 1627991321568
157, 19.82, 26.42, 0.00, 0.00, 0.000, 0.000, 0.000, 14:48:41.569, 1627991321569
158, 127.50, 31.84, 0.00, 0.00, 0.000, 0.000, 0.000, 14:48:41.569, 1627991321569
159, 182.58, -84.44, 0.00, 0.00, 0.000, 0.000, 0.000, 14:48:41.581, 1627991321581
160, 74.12, -126.49, 0.00, 0.00, 0.000, 0.000, 0.000, 14:48:41.581, 1627991321581
161, 20.68, 13.08, 0.00, 0.00, 0.000, 0.000, 0.000, 14:48:41.582, 1627991321582
162, 135.76, 27.85, 0.00, 0.00, 0.000, 0.000, 0.000, 14:48:41.582, 1627991321582
163, 181.96, -95.78, 0.00, 0.00, 0.000, 0.000, 0.000, 14:48:41.594, 1627991321594
164, 95.12, -116.43, 0.00, 0.00, 0.000, 0.000, 0.000, 14:48:41.594, 1627991321594
165, 12.41, -12.88, 0.00, 0.00, 0.000, 0.000, 0.000, 14:48:41.610, 1627991321610
166, 133.00, 1.98, 0.00, 0.00, 0.000, 0.000, 0.000, 14:48:41.610, 1627991321610
167, 174.30, -120.11, 0.00, 0.00, 0.000, 0.000, 0.000, 14:48:41.613, 1627991321613
168, 89.86, -143.99, 0.00, 0.00, 0.000, 0.000, 0.000, 14:48:41.613, 1627991321613
169, 25.13, -21.91, 0.00, 0.00, 0.000, 0.000, 0.000, 14:48:41.624, 1627991321624
170, 128.74, -21.84, 0.00, 0.00, 0.000, 0.000, 0.000, 14:48:41.624, 1627991321624
171, 170.49, -128.76, 0.00, 0.00, 0.000, 0.000, 0.000, 14:48:41.639, 1627991321639
172, 71.11, -153.92, 0.00, 0.00, 0.000, 0.000, 0.000, 14:48:41.639, 1627991321639
173, 20.60, -35.98, 0.00, 0.00, 0.000, 0.000, 0.000, 14:48:41.640, 1627991321640
174, 122.52, -20.78, 0.00, 0.00, 0.000, 0.000, 0.000, 14:48:41.640, 1627991321640
175, 154.47, -136.87, 0.00, 0.00, 0.000, 0.000, 0.000, 14:48:41.653, 1627991321653
176, 83.15, -148.55, 0.00, 0.00, 0.000, 0.000, 0.000, 14:48:41.653, 1627991321653
177, 29.55, -24.00, 0.00, 0.00, 0.000, 0.000, 0.000, 14:48:41.669, 1627991321669
178, 136.97, -5.16, 0.00, 0.00, 0.000, 0.000, 0.000, 14:48:41.669, 1627991321669
179, 149.96, -129.37, 0.00, 0.00, 0.000, 0.000, 0.000, 14:48:41.673, 1627991321673
180, 66.42, -150.82, 0.00, 0.00, 0.000, 0.000, 0.000, 14:48:41.673, 1627991321673
181, 35.56, -19.47, 0.00, 0.00, 0.000, 0.000, 0.000, 14:48:41.683, 1627991321683
182, 129.12, -4.34, 0.00, 0.00, 0.000, 0.000, 0.000, 14:48:41.683, 1627991321683
183, 138.56, -118.37, 0.00, 0.00, 0.000, 0.000, 0.000, 14:48:41.699, 1627991321699
184, 58.15, -147.93, 0.00, 0.00, 0.000, 0.000, 0.000, 14:48:41.699, 1627991321699
185, 23.78, -24.91, 0.00, 0.00, 0.000, 0.000, 0.000, 14:48:41.700, 1627991321700
186, 110.70, -10.30, 0.00, 0.00, 0.000, 0.000, 0.000, 14:48:41.700, 1627991321700
187, 122.26, -124.79, 0.00, 0.00, 0.000, 0.000, 0.000, 14:48:41.731, 1627991321731
188, 45.16, -138.87, 0.00, 0.00, 0.000, 0.000, 0.000, 14:48:41.731, 1627991321731
189, 29.76, -13.35, 0.00, 0.00, 0.000, 0.000, 0.000, 14:48:41.732, 1627991321732
190, 119.39, 0.86, 0.00, 0.00, 0.000, 0.000, 0.000, 14:48:41.732, 1627991321732
191, 123.01, -118.36, 0.00, 0.00, 0.000, 0.000, 0.000, 14:48:41.732, 1627991321732
192, 45.40, -144.87, 0.00, 0.00, 0.000, 0.000, 0.000, 14:48:41.732, 1627991321732
193, 14.32, -25.82, 0.00, 0.00, 0.000, 0.000, 0.000, 14:48:41.744, 1627991321744
194, 98.95, -10.52, 0.00, 0.00, 0.000, 0.000, 0.000, 14:48:41.744, 1627991321744
195, 94.97, -122.72, 0.00, 0.00, 0.000, 0.000, 0.000, 14:48:41.760, 1627991321760
196, 21.63, -133.94, 0.00, 0.00, 0.000, 0.000, 0.000, 14:48:41.760, 1627991321760
197, 10.40, -3.57, 0.00, 0.00, 0.000, 0.000, 0.000, 14:48:41.762, 1627991321762
198, 111.69, 20.21, 0.00, 0.00, 0.000, 0.000, 0.000, 14:48:41.762, 1627991321762
199, 104.88, -95.56, 0.00, 0.00, 0.000, 0.000, 0.000, 14:48:41.774, 1627991321774
200, 33.03, -126.89, 0.00, 0.00, 0.000, 0.000, 0.000, 14:48:41.774, 1627991321774
0, 24.41, 6.16, 0.00, 0.00, 0.000, 0.000, 0.000, 14:48:41.777, 1627991321777
1, 112.91, 24.18, 0.00, 0.00, 0.000, 0.000, 0.000, 14:48:41.788, 1627991321788
2, 107.14, -101.45, 0.00, 0.00, 0.000, 0.000, 0.000, 14:48:41.788, 1627991321788
3, 29.39, -108.36, 0.00, 0.00, 0.000, 0.000, 0.000, 14:48:41.804, 1627991321804
4, 23.04, 15.19, 0.00, 0.00, 0.000, 0.000, 0.000, 14:48:41.804, 1627991321804
5, 108.14, 20.80, 0.00, 0.00, 0.000, 0.000, 0.000, 14:48:41.806, 1627991321806
6, 84.56, -100.88, 0.00, 0.00, 0.000, 0.000, 0.000, 14:48:41.806, 1627991321806
7, 17.96, -129.11, 0.00, 0.00, 0.000, 0.000, 0.000, 14:48:41.818, 1627991321818
8, 16.24, -3.02, 0.00, 0.00, 0.000, 0.000, 0.000, 14:48:41.818, 1627991321818
9, 111.16, 11.69, 0.00, 0.00, 0.000, 0.000, 0.000, 14:48:41.834, 1627991321834
10, 101.22, -103.92, 0.00, 0.00, 0.000, 0.000, 0.000, 14:48:41.834, 1627991321834
11, 31.33, -109.95, 0.00, 0.00, 0.000, 0.000, 0.000, 14:48:41.835, 1627991321835
12, 26.65, -7.86, 0.00, 0.00, 0.000, 0.000, 0.000, 14:48:41.835, 1627991321835
13, 115.17, 31.48, 0.00, 0.00, 0.000, 0.000, 0.000, 14:48:41.849, 1627991321849
14, 99.83, -79.49, 0.00, 0.00, 0.000, 0.000, 0.000, 14:48:41.849, 1627991321849
15, 33.25, -111.56, 0.00, 0.00, 0.000, 0.000, 0.000, 14:48:41.866, 1627991321866
16, 45.18, 12.98, 0.00, 0.00, 0.000, 0.000, 0.000, 14:48:41.866, 1627991321866
17, 120.99, 44.23, 0.00, 0.00, 0.000, 0.000, 0.000, 14:48:41.867, 1627991321867
18, 93.38, -64.95, 0.00, 0.00, 0.000, 0.000, 0.000, 14:48:41.867, 1627991321867
19, 29.94, -100.60, 0.00, 0.00, 0.000, 0.000, 0.000, 14:48:41.879, 1627991321879
20, 36.36, 21.34, 0.00, 0.00, 0.000, 0.000, 0.000, 14:48:41.879, 1627991321879
21, 109.11, 43.07, 0.00, 0.00, 0.000, 0.000, 0.000, 14:48:41.894, 1627991321894
22, 84.05, -84.35, 0.00, 0.00, 0.000, 0.000, 0.000, 14:48:41.894, 1627991321894
23, 34.19, -102.25, 0.00, 0.00, 0.000, 0.000, 0.000, 14:48:41.896, 1627991321896
24, 48.36, 26.01, 0.00, 0.00, 0.000, 0.000, 0.000, 14:48:41.896, 1627991321896
25, 122.91, 68.35, 0.00, 0.00, 0.000, 0.000, 0.000, 14:48:41.910, 1627991321910
26, 106.45, -46.00, 0.00, 0.00, 0.000, 0.000, 0.000, 14:48:41.910, 1627991321910
27, 50.00, -75.22, 0.00, 0.00, 0.000, 0.000, 0.000, 14:48:41.925, 1627991321925
28, 72.20, 60.29, 0.00, 0.00, 0.000, 0.000, 0.000, 14:48:41.925, 1627991321925
29, 121.43, 68.96, 0.00, 0.00, 0.000, 0.000, 0.000, 14:48:41.935, 1627991321935
30, 124.65, -34.28, 0.00, 0.00, 0.000, 0.000, 0.000, 14:48:41.935, 1627991321935
31, 77.59, -56.11, 0.00, 0.00, 0.000, 0.000, 0.000, 14:48:41.955, 1627991321955
32, 68.89, 46.38, 0.00, 0.00, 0.000, 0.000, 0.000, 14:48:41.955, 1627991321955
33, 148.30, 69.09, 0.00, 0.00, 0.000, 0.000, 0.000, 14:48:41.956, 1627991321956
34, 113.73, -53.34, 0.00, 0.00, 0.000, 0.000, 0.000, 14:48:41.956, 1627991321956
35, 61.99, -71.83, 0.00, 0.00, 0.000, 0.000, 0.000, 14:48:41.957, 1627991321957
36, 84.64, 47.48, 0.00, 0.00, 0.000, 0.000, 0.000, 14:48:41.957, 1627991321957
37, 150.27, 69.85, 0.00, 0.00, 0.000, 0.000, 0.000, 14:48:41.972, 1627991321972
38, 115.28, -51.36, 0.00, 0.00, 0.000, 0.000, 0.000, 14:48:41.972, 1627991321972
39, 73.41, -55.75, 0.00, 0.00, 0.000, 0.000, 0.000, 14:48:41.985, 1627991321985
40, 73.26, 54.26, 0.00, 0.00, 0.000, 0.000, 0.000, 14:48:41.985, 1627991321985
41, 148.29, 78.31, 0.00, 0.00, 0.000, 0.000, 0.000, 14:48:41.987, 1627991321987
42, 113.21, -54.52, 0.00, 0.00, 0.000, 0.000, 0.000, 14:48:41.987, 1627991321987
43, 57.69, -73.19, 0.00, 0.00, 0.000, 0.000, 0.000, 14:48:41.999, 1627991321999
44, 66.55, 45.15, 0.00, 0.00, 0.000, 0.000, 0.000, 14:48:41.999, 1627991321999
45, 147.82, 86.95, 0.00, 0.00, 0.000, 0.000, 0.000, 14:48:42.014, 1627991322014
46, 117.69, -45.02, 0.00, 0.00, 0.000, 0.000, 0.000, 14:48:42.014, 1627991322014
47, 50.78, -72.28, 0.00, 0.00, 0.000, 0.000, 0.000, 14:48:42.015, 1627991322015
48, 59.48, 43.63, 0.00, 0.00, 0.000, 0.000, 0.000, 14:48:42.015, 1627991322015
49, 139.94, 79.60, 0.00, 0.00, 0.000, 0.000, 0.000, 14:48:42.032, 1627991322032
50, 118.93, -36.77, 0.00, 0.00, 0.000, 0.000, 0.000, 14:48:42.032, 1627991322032
51, 46.14, -70.41, 0.00, 0.00, 0.000, 0.000, 0.000, 14:48:42.044, 1627991322044
52, 39.52, 47.08, 0.00, 0.00, 0.000, 0.000, 0.000, 14:48:42.044, 1627991322044
53, 125.02, 88.90, 0.00, 0.00, 0.000, 0.000, 0.000, 14:48:42.045, 1627991322045
54, 120.78, -35.35, 0.00, 0.00, 0.000, 0.000, 0.000, 14:48:42.045, 1627991322045
55, 49.05, -63.44, 0.00, 0.00, 0.000, 0.000, 0.000, 14:48:42.058, 1627991322058
56, 38.37, 49.63, 0.00, 0.00, 0.000, 0.000, 0.000, 14:48:42.058, 1627991322058
57, 124.12, 75.93, 0.00, 0.00, 0.000, 0.000, 0.000, 14:48:42.076, 1627991322076
58, 116.27, -48.50, 0.00, 0.00, 0.000, 0.000, 0.000, 14:48:42.076, 1627991322076
59, 54.65, -64.41, 0.00, 0.00, 0.000, 0.000, 0.000, 14:48:42.079, 1627991322079
60, 36.68, 54.60, 0.00, 0.00, 0.000, 0.000, 0.000, 14:48:42.079, 1627991322079
61, 134.80, 89.46, 0.00, 0.00, 0.000, 0.000, 0.000, 14:48:42.088, 1627991322088
62, 138.36, -36.88, 0.00, 0.00, 0.000, 0.000, 0.000, 14:48:42.088, 1627991322088
63, 60.56, -61.53, 0.00, 0.00, 0.000, 0.000, 0.000, 14:48:42.104, 1627991322104
64, 32.98, 55.47, 0.00, 0.00, 0.000, 0.000, 0.000, 14:48:42.104, 1627991322104
65, 141.41, 85.85, 0.00, 0.00, 0.000, 0.000, 0.000, 14:48:42.105, 1627991322105
66, 133.87, -46.71, 0.00, 0.00, 0.000, 0.000, 0.000, 14:48:42.105, 1627991322105
67, 59.41, -64.20, 0.00, 0.00, 0.000, 0.000, 0.000, 14:48:42.118, 1627991322118
68, 22.44, 45.24, 0.00, 0.00, 0.000, 0.000, 0.000, 14:48:42.118, 1627991322118
69, 130.90, 79.07, 0.00, 0.00, 0.000, 0.000, 0.000, 14:48:42.137, 1627991322137
70, 147.69, -28.00, 0.00, 0.00, 0.000, 0.000, 0.000, 14:48:42.137, 1627991322137
71, 59.28, -70.77, 0.00, 0.00, 0.000, 0.000, 0.000, 14:48:42.138, 1627991322138
72, 13.18, 45.74, 0.00, 0.00, 0.000, 0.000, 0.000, 14:48:42.138, 1627991322138
73, 136.48, 91.41, 0.00, 0.00, 0.000, 0.000, 0.000, 14:48:42.152, 1627991322152
74, 158.71, -21.29, 0.00, 0.00, 0.000, 0.000, 0.000, 14:48:42.152, 1627991322152
75, 54.13, -62.24, 0.00, 0.00, 0.000, 0.000, 0.000, 14:48:42.165, 1627991322165
76, 14.21, 56.12, 0.00, 0.00, 0.000, 0.000, 0.000, 14:48:42.165, 1627991322165
77, 139.34, 97.21, 0.00, 0.00, 0.000, 0.000, 0.000, 14:48:42.180, 1627991322180
78, 158.09, -29.88, 0.00, 0.00, 0.000, 0.000, 0.000, 14:48:42.180, 1627991322180
79, 91.61, -48.53, 0.00, 0.00, 0.000, 0.000, 0.000, 14:48:42.182, 1627991322182
80, 20.16, 56.47, 0.00, 0.00, 0.000, 0.000, 0.000, 14:48:42.182, 1627991322182
81, 146.43, 104.46, 0.00, 0.00, 0.000, 0.000, 0.000, 14:48:42.195, 1627991322195
82, 189.97, -6.79, 0.00, 0.00, 0.000, 0.000, 0.000, 14:48:42.195, 1627991322195
83, 97.12, -44.04, 0.00, 0.00, 0.000, 0.000, 0.000, 14:48:42.196, 1627991322196
84, 17.49, 61.31, 0.00, 0.00, 0.000, 0.000, 0.000, 14:48:42.196, 1627991322196
85, 146.04, 106.44, 0.00, 0.00, 0.000, 0.000, 0.000, 14:48:42.225, 1627991322225
86, 179.24, -7.57, 0.00, 0.00, 0.000, 0.000, 0.000, 14:48:42.225, 1627991322225
87, 88.34, -44.75, 0.00, 0.00, 0.000, 0.000, 0.000, 14:48:42.227, 1627991322227
88, -4.93, 56.63, 0.00, 0.00, 0.000, 0.000, 0.000, 14:48:42.227, 1627991322227
89, 120.41, 100.54, 0.00, 0.00, 0.000, 0.000, 0.000, 14:48:42.227, 1627991322227
90, 207.15, 17.10, 0.00, 0.00, 0.000, 0.000, 0.000, 14:48:42.227, 1627991322227
91, 105.29, -17.19, 0.00, 0.00, 0.000, 0.000, 0.000, 14:48:42.239, 1627991322239
92, 0.71, 48.27, 0.00, 0.00, 0.000, 0.000, 0.000, 14:48:42.239, 1627991322239
93, 112.07, 81.60, 0.00, 0.00, 0.000, 0.000, 0.000, 14:48:42.254, 1627991322254
94, 178.79, 11.38, 0.00, 0.00, 0.000, 0.000, 0.000, 14:48:42.254, 1627991322254
95, 77.07, -30.28, 0.00, 0.00, 0.000, 0.000, 0.000, 14:48:42.255, 1627991322255
96, -25.99, 74.13, 0.00, 0.00, 0.000, 0.000, 0.000, 14:48:42.255, 1627991322255
97, 103.72, 110.70, 0.00, 0.00, 0.000, 0.000, 0.000, 14:48:42.269, 1627991322269
98, 184.13, 28.86, 0.00, 0.00, 0.000, 0.000, 0.000, 14:48:42.269, 1627991322269
99, 75.88, -7.14, 0.00, 0.00, 0.000, 0.000, 0.000, 14:48:42.284, 1627991322284
100, -40.96, 79.73, 0.00, 0.00, 0.000, 0.000, 0.000, 14:48:42.284, 1627991322284
101, 105.09, 138.21, 0.00, 0.00, 0.000, 0.000, 0.000, 14:48:42.285, 1627991322285
102, 163.59, 20.52, 0.00, 0.00, 0.000, 0.000, 0.000, 14:48:42.285, 1627991322285
103, 56.80, -31.59, 0.00, 0.00, 0.000, 0.000, 0.000, 14:48:42.299, 1627991322299
104, -48.15, 67.60, 0.00, 0.00, 0.000, 0.000, 0.000, 14:48:42.299, 1627991322299
105, 85.08, 110.54, 0.00, 0.00, 0.000, 0.000, 0.000, 14:48:42.315, 1627991322315
106, 161.73, -2.27, 0.00, 0.00, 0.000, 0.000, 0.000, 14:48:42.315, 1627991322315
107, 41.95, -57.95, 0.00, 0.00, 0.000, 0.000, 0.000, 14:48:42.315, 1627991322315
108, -54.58, 45.35, 0.00, 0.00, 0.000, 0.000, 0.000, 14:48:42.315, 1627991322315
109, 91.24, 101.96, 0.00, 0.00, 0.000, 0.000, 0.000, 14:48:42.329, 1627991322329
110, 176.24, 7.55, 0.00, 0.00, 0.000, 0.000, 0.000, 14:48:42.329, 1627991322329
111, 67.76, -33.56, 0.00, 0.00, 0.000, 0.000, 0.000, 14:48:42.345, 1627991322345
112, -51.31, 52.81, 0.00, 0.00, 0.000, 0.000, 0.000, 14:48:42.345, 1627991322345
113, 79.42, 94.18, 0.00, 0.00, 0.000, 0.000, 0.000, 14:48:42.346, 1627991322346
114, 155.90, -19.03, 0.00, 0.00, 0.000, 0.000, 0.000, 14:48:42.346, 1627991322346
115, 54.54, -55.53, 0.00, 0.00, 0.000, 0.000, 0.000, 14:48:42.362, 1627991322362
116, -59.60, 41.31, 0.00, 0.00, 0.000, 0.000, 0.000, 14:48:42.362, 1627991322362
117, 79.83, 89.83, 0.00, 0.00, 0.000, 0.000, 0.000, 14:48:42.377, 1627991322377
118, 190.01, 15.66, 0.00, 0.00, 0.000, 0.000, 0.000, 14:48:42.377, 1627991322377
119, 82.87, -21.56, 0.00, 0.00, 0.000, 0.000, 0.000, 14:48:42.383, 1627991322383
120, -43.53, 57.30, 0.00, 0.00, 0.000, 0.000, 0.000, 14:48:42.383, 1627991322383
121, 91.23, 99.26, 0.00, 0.00, 0.000, 0.000, 0.000, 14:48:42.388, 1627991322388
122, 169.76, -1.98, 0.00, 0.00, 0.000, 0.000, 0.000, 14:48:42.388, 1627991322388
123, 48.95, -48.98, 0.00, 0.00, 0.000, 0.000, 0.000, 14:48:42.404, 1627991322404
124, -62.10, 40.63, 0.00, 0.00, 0.000, 0.000, 0.000, 14:48:42.404, 1627991322404
125, 74.61, 96.68, 0.00, 0.00, 0.000, 0.000, 0.000, 14:48:42.414, 1627991322414
126, 163.11, 3.58, 0.00, 0.00, 0.000, 0.000, 0.000, 14:48:42.414, 1627991322414
127, 39.97, -52.23, 0.00, 0.00, 0.000, 0.000, 0.000, 14:48:42.418, 1627991322418
128, -68.56, 33.81, 0.00, 0.00, 0.000, 0.000, 0.000, 14:48:42.418, 1627991322418
129, 81.90, 113.58, 0.00, 0.00, 0.000, 0.000, 0.000, 14:48:42.434, 1627991322434
130, 168.66, 34.20, 0.00, 0.00, 0.000, 0.000, 0.000, 14:48:42.434, 1627991322434
131, 52.82, -23.05, 0.00, 0.00, 0.000, 0.000, 0.000, 14:48:42.436, 1627991322436
132, -55.55, 67.11, 0.00, 0.00, 0.000, 0.000, 0.000, 14:48:42.436, 1627991322436
133, 98.48, 128.15, 0.00, 0.00, 0.000, 0.000, 0.000, 14:48:42.448, 1627991322448
134, 189.26, 37.49, 0.00, 0.00, 0.000, 0.000, 0.000, 14:48:42.448, 1627991322448
135, 62.27, -29.50, 0.00, 0.00, 0.000, 0.000, 0.000, 14:48:42.464, 1627991322464
136, -67.62, 42.37, 0.00, 0.00, 0.000, 0.000, 0.000, 14:48:42.464, 1627991322464
137, 87.09, 126.20, 0.00, 0.00, 0.000, 0.000, 0.000, 14:48:42.465, 1627991322465
138, 154.09, 19.80, 0.00, 0.00, 0.000, 0.000, 0.000, 14:48:42.465, 1627991322465
139, 41.79, -37.22, 0.00, 0.00, 0.000, 0.000, 0.000, 14:48:42.482, 1627991322482
140, -69.26, 52.45, 0.00, 0.00, 0.000, 0.000, 0.000, 14:48:42.482, 1627991322482
141, 32.82, 131.61, 0.00, 0.00, 0.000, 0.000, 0.000, 14:48:42.511, 1627991322511
142, 156.47, 34.04, 0.00, 0.00, 0.000, 0.000, 0.000, 14:48:42.511, 1627991322511
143, 78.77, -16.40, 0.00, 0.00, 0.000, 0.000, 0.000, 14:48:42.512, 1627991322512
144, -52.03, 48.49, 0.00, 0.00, 0.000, 0.000, 0.000, 14:48:42.512, 1627991322512
145, 87.16, 104.59, 0.00, 0.00, 0.000, 0.000, 0.000, 14:48:42.525, 1627991322525
146, 134.71, 3.97, 0.00, 0.00, 0.000, 0.000, 0.000, 14:48:42.525, 1627991322525
147, -0.33, -35.50, 0.00, 0.00, 0.000, 0.000, 0.000, 14:48:42.527, 1627991322527
148, -85.09, 81.79, 0.00, 0.00, 0.000, 0.000, 0.000, 14:48:42.527, 1627991322527
149, 89.49, 124.79, 0.00, 0.00, 0.000, 0.000, 0.000, 14:48:42.527, 1627991322527
150, 107.03, 16.69, 0.00, 0.00, 0.000, 0.000, 0.000, 14:48:42.527, 1627991322527
151, 24.43, -43.84, 0.00, 0.00, 0.000, 0.000, 0.000, 14:48:42.538, 1627991322538
152, -12.25, 73.01, 0.00, 0.00, 0.000, 0.000, 0.000, 14:48:42.538, 1627991322538
153, 101.23, 112.96, 0.00, 0.00, 0.000, 0.000, 0.000, 14:48:42.554, 1627991322554
154, 162.18, 7.40, 0.00, 0.00, 0.000, 0.000, 0.000, 14:48:42.554, 1627991322554
155, 30.86, -23.65, 0.00, 0.00, 0.000, 0.000, 0.000, 14:48:42.555, 1627991322555
156, -81.63, 43.25, 0.00, 0.00, 0.000, 0.000, 0.000, 14:48:42.555, 1627991322555
157, 88.21, 102.79, 0.00, 0.00, 0.000, 0.000, 0.000, 14:48:42.568, 1627991322568
158, 132.10, -7.63, 0.00, 0.00, 0.000, 0.000, 0.000, 14:48:42.568, 1627991322568
159, 24.87, -69.44, 0.00, 0.00, 0.000, 0.000, 0.000, 14:48:42.584, 1627991322584
160, -66.82, -6.86, 0.00, 0.00, 0.000, 0.000, 0.000, 14:48:42.584, 1627991322584
161, 59.45, 71.22, 0.00, 0.00, 0.000, 0.000, 0.000, 14:48:42.585, 1627991322585
162, 75.53, -22.15, 0.00, 0.00, 0.000, 0.000, 0.000, 14:48:42.585, 1627991322585
163, -48.79, -25.29, 0.00, 0.00, 0.000, 0.000, 0.000, 14:48:42.598, 1627991322598
164, -42.43, 35.65, 0.00, 0.00, 0.000, 0.000, 0.000, 14:48:42.598, 1627991322598
165, 146.10, 99.78, 0.00, 0.00, 0.000, 0.000, 0.000, 14:48:42.615, 1627991322615
166, 178.45, 2.27, 0.00, 0.00, 0.000, 0.000, 0.000, 14:48:42.615, 1627991322615
167, 40.47, -78.99, 0.00, 0.00, 0.000, 0.000, 0.000, 14:48:42.616, 1627991322616
168, -51.97, 19.99, 0.00, 0.00, 0.000, 0.000, 0.000, 14:48:42.616, 1627991322616
169, 38.99, 40.41, 0.00, 0.00, 0.000, 0.000, 0.000, 14:48:42.629, 1627991322629
170, 107.82, -42.05, 0.00, 0.00, 0.000, 0.000, 0.000, 14:48:42.629, 1627991322629
171, -4.57, -88.09, 0.00, 0.00, 0.000, 0.000, 0.000, 14:48:42.646, 1627991322646
172, -91.42, 3.77, 0.00, 0.00, 0.000, 0.000, 0.000, 14:48:42.646, 1627991322646
173, 122.64, 138.77, 0.00, 0.00, 0.000, 0.000, 0.000, 14:48:42.646, 1627991322646
174, 138.93, 15.64, 0.00, 0.00, 0.000, 0.000, 0.000, 14:48:42.646, 1627991322646
175, 5.09, -72.17, 0.00, 0.00, 0.000, 0.000, 0.000, 14:48:42.675, 1627991322675
176, -75.03, -10.91, 0.00, 0.00, 0.000, 0.000, 0.000, 14:48:42.675, 1627991322675
177, 54.43, 53.46, 0.00, 0.00, 0.000, 0.000, 0.000, 14:48:42.678, 1627991322678
178, 97.67, -51.58, 0.00, 0.00, 0.000, 0.000, 0.000, 14:48:42.678, 1627991322678
179, -4.58, -91.60, 0.00, 0.00, 0.000, 0.000, 0.000, 14:48:42.679, 1627991322679
180, -105.50, -22.33, 0.00, 0.00, 0.000, 0.000, 0.000, 14:48:42.679, 1627991322679
181, -8.28, -6.34, 0.00, 0.00, 0.000, 0.000, 0.000, 14:48:42.689, 1627991322689
182, 60.38, -93.40, 0.00, 0.00, 0.000, 0.000, 0.000, 14:48:42.689, 1627991322689
183, 4.85, -106.77, 0.00, 0.00, 0.000, 0.000, 0.000, 14:48:42.723, 1627991322723
184, 49.03, 95.41, 0.00, 0.00, 0.000, 0.000, 0.000, 14:48:42.723, 1627991322723
185, 148.47, 123.83, 0.00, 0.00, 0.000, 0.000, 0.000, 14:48:42.723, 1627991322723
186, 180.69, -11.05, 0.00, 0.00, 0.000, 0.000, 0.000, 14:48:42.723, 1627991322723
187, 46.23, -94.79, 0.00, 0.00, 0.000, 0.000, 0.000, 14:48:42.724, 1627991322724
188, -49.62, -10.82, 0.00, 0.00, 0.000, 0.000, 0.000, 14:48:42.724, 1627991322724
189, 68.75, 25.38, 0.00, 0.00, 0.000, 0.000, 0.000, 14:48:42.735, 1627991322735
190, 139.18, -58.85, 0.00, 0.00, 0.000, 0.000, 0.000, 14:48:42.735, 1627991322735
191, 64.09, -94.42, 0.00, 0.00, 0.000, 0.000, 0.000, 14:48:42.735, 1627991322735
192, -44.65, -27.97, 0.00, 0.00, 0.000, 0.000, 0.000, 14:48:42.735, 1627991322735
193, 107.45, 72.88, 0.00, 0.00, 0.000, 0.000, 0.000, 14:48:42.749, 1627991322749
194, 176.80, -29.70, 0.00, 0.00, 0.000, 0.000, 0.000, 14:48:42.749, 1627991322749
195, 48.74, -102.97, 0.00, 0.00, 0.000, 0.000, 0.000, 14:48:42.781, 1627991322781
196, -60.72, -23.62, 0.00, 0.00, 0.000, 0.000, 0.000, 14:48:42.781, 1627991322781
197, 90.72, 29.09, 0.00, 0.00, 0.000, 0.000, 0.000, 14:48:42.782, 1627991322782
198, 178.12, -57.31, 0.00, 0.00, 0.000, 0.000, 0.000, 14:48:42.782, 1627991322782
199, 22.58, -151.26, 0.00, 0.00, 0.000, 0.000, 0.000, 14:48:42.783, 1627991322783
200, -71.01, -47.39, 0.00, 0.00, 0.000, 0.000, 0.000, 14:48:42.783, 1627991322783
0, 94.91, 33.71, 0.00, 0.00, 0.000, 0.000, 0.000, 14:48:42.784, 1627991322784
1, 223.45, -20.61, 0.00, 0.00, 0.000, 0.000, 0.000, 14:48:42.793, 1627991322793
2, 108.75, -87.90, 0.00, 0.00, 0.000, 0.000, 0.000, 14:48:42.793, 1627991322793
3, -29.95, -21.31, 0.00, 0.00, 0.000, 0.000, 0.000, 14:48:42.827, 1627991322827
4, 117.71, 44.03, 0.00, 0.00, 0.000, 0.000, 0.000, 14:48:42.827, 1627991322827
5, 203.28, -64.15, 0.00, 0.00, 0.000, 0.000, 0.000, 14:48:42.829, 1627991322829
6, 92.08, -94.37, 0.00, 0.00, 0.000, 0.000, 0.000, 14:48:42.829, 1627991322829
7, -35.30, -11.10, 0.00, 0.00, 0.000, 0.000, 0.000, 14:48:42.840, 1627991322840
8, 98.62, 34.84, 0.00, 0.00, 0.000, 0.000, 0.000, 14:48:42.840, 1627991322840
9, 160.94, -68.24, 0.00, 0.00, 0.000, 0.000, 0.000, 14:48:42.844, 1627991322844
10, 55.61, -123.76, 0.00, 0.00, 0.000, 0.000, 0.000, 14:48:42.844, 1627991322844
11, -68.63, -28.80, 0.00, 0.00, 0.000, 0.000, 0.000, 14:48:42.844, 1627991322844
12, 79.15, 41.81, 0.00, 0.00, 0.000, 0.000, 0.000, 14:48:42.844, 1627991322844
13, 150.09, -90.72, 0.00, 0.00, 0.000, 0.000, 0.000, 14:48:42.853, 1627991322853
14, 73.98, -109.02, 0.00, 0.00, 0.000, 0.000, 0.000, 14:48:42.853, 1627991322853
15, -16.72, 3.65, 0.00, 0.00, 0.000, 0.000, 0.000, 14:48:42.885, 1627991322885
16, 113.55, 36.78, 0.00, 0.00, 0.000, 0.000, 0.000, 14:48:42.885, 1627991322885
17, 186.17, -48.26, 0.00, 0.00, 0.000, 0.000, 0.000, 14:48:42.886, 1627991322886
18, 64.35, -107.03, 0.00, 0.00, 0.000, 0.000, 0.000, 14:48:42.886, 1627991322886
19, -48.06, -21.45, 0.00, 0.00, 0.000, 0.000, 0.000, 14:48:42.887, 1627991322887
20, 82.47, 25.48, 0.00, 0.00, 0.000, 0.000, 0.000, 14:48:42.887, 1627991322887
21, 156.91, -75.36, 0.00, 0.00, 0.000, 0.000, 0.000, 14:48:42.899, 1627991322899
22, 45.71, -146.28, 0.00, 0.00, 0.000, 0.000, 0.000, 14:48:42.899, 1627991322899
23, -64.09, -42.81, 0.00, 0.00, 0.000, 0.000, 0.000, 14:48:42.900, 1627991322900
24, 75.28, 25.14, 0.00, 0.00, 0.000, 0.000, 0.000, 14:48:42.900, 1627991322900
25, 180.78, -67.14, 0.00, 0.00, 0.000, 0.000, 0.000, 14:48:42.914, 1627991322914
26, 82.01, -101.94, 0.00, 0.00, 0.000, 0.000, 0.000, 14:48:42.914, 1627991322914
27, -23.93, -9.36, 0.00, 0.00, 0.000, 0.000, 0.000, 14:48:42.931, 1627991322931
28, 97.77, 19.10, 0.00, 0.00, 0.000, 0.000, 0.000, 14:48:42.931, 1627991322931
29, 189.71, -70.16, 0.00, 0.00, 0.000, 0.000, 0.000, 14:48:42.932, 1627991322932
30, 76.73, -109.87, 0.00, 0.00, 0.000, 0.000, 0.000, 14:48:42.932, 1627991322932
31, -21.51, -14.11, 0.00, 0.00, 0.000, 0.000, 0.000, 14:48:42.947, 1627991322947
32, 83.96, 31.37, 0.00, 0.00, 0.000, 0.000, 0.000, 14:48:42.947, 1627991322947
33, 154.41, -72.23, 0.00, 0.00, 0.000, 0.000, 0.000, 14:48:42.960, 1627991322960
34, 64.04, -111.36, 0.00, 0.00, 0.000, 0.000, 0.000, 14:48:42.960, 1627991322960
35, -50.15, -48.15, 0.00, 0.00, 0.000, 0.000, 0.000, 14:48:42.962, 1627991322962
36, 78.59, -0.19, 0.00, 0.00, 0.000, 0.000, 0.000, 14:48:42.962, 1627991322962
37, 141.39, -86.43, 0.00, 0.00, 0.000, 0.000, 0.000, 14:48:42.974, 1627991322974
38, 89.42, -94.25, 0.00, 0.00, 0.000, 0.000, 0.000, 14:48:42.974, 1627991322974
39, 32.92, 36.65, 0.00, 0.00, 0.000, 0.000, 0.000, 14:48:42.992, 1627991322992
40, 139.32, 67.53, 0.00, 0.00, 0.000, 0.000, 0.000, 14:48:42.992, 1627991322992
41, 187.01, -56.29, 0.00, 0.00, 0.000, 0.000, 0.000, 14:48:43.000, 1627991323000
42, 87.47, -99.63, 0.00, 0.00, 0.000, 0.000, 0.000, 14:48:43.000, 1627991323000
43, -7.84, -13.09, 0.00, 0.00, 0.000, 0.000, 0.000, 14:48:43.004, 1627991323004
44, 114.59, 46.28, 0.00, 0.00, 0.000, 0.000, 0.000, 14:48:43.004, 1627991323004
45, 183.93, -52.27, 0.00, 0.00, 0.000, 0.000, 0.000, 14:48:43.020, 1627991323020
46, 78.12, -101.00, 0.00, 0.00, 0.000, 0.000, 0.000, 14:48:43.020, 1627991323020
47, -5.85, -6.23, 0.00, 0.00, 0.000, 0.000, 0.000, 14:48:43.021, 1627991323021
48, 113.94, 53.21, 0.00, 0.00, 0.000, 0.000, 0.000, 14:48:43.021, 1627991323021
49, 173.37, -66.14, 0.00, 0.00, 0.000, 0.000, 0.000, 14:48:43.034, 1627991323034
50, 79.77, -107.54, 0.00, 0.00, 0.000, 0.000, 0.000, 14:48:43.034, 1627991323034
51, -20.68, -8.10, 0.00, 0.00, 0.000, 0.000, 0.000, 14:48:43.050, 1627991323050
52, 95.14, 36.48, 0.00, 0.00, 0.000, 0.000, 0.000, 14:48:43.050, 1627991323050
53, 161.32, -71.97, 0.00, 0.00, 0.000, 0.000, 0.000, 14:48:43.051, 1627991323051
54, 64.04, -119.93, 0.00, 0.00, 0.000, 0.000, 0.000, 14:48:43.051, 1627991323051
55, -9.38, -13.62, 0.00, 0.00, 0.000, 0.000, 0.000, 14:48:43.064, 1627991323064
56, 107.97, 53.06, 0.00, 0.00, 0.000, 0.000, 0.000, 14:48:43.064, 1627991323064
57, 172.13, -66.68, 0.00, 0.00, 0.000, 0.000, 0.000, 14:48:43.080, 1627991323080
58, 72.50, -121.47, 0.00, 0.00, 0.000, 0.000, 0.000, 14:48:43.080, 1627991323080
59, -14.25, -20.20, 0.00, 0.00, 0.000, 0.000, 0.000, 14:48:43.082, 1627991323082
60, 101.50, 40.15, 0.00, 0.00, 0.000, 0.000, 0.000, 14:48:43.082, 1627991323082
61, 161.31, -85.12, 0.00, 0.00, 0.000, 0.000, 0.000, 14:48:43.110, 1627991323110
62, 58.83, -135.49, 0.00, 0.00, 0.000, 0.000, 0.000, 14:48:43.110, 1627991323110
63, 2.40, -22.35, 0.00, 0.00, 0.000, 0.000, 0.000, 14:48:43.111, 1627991323111
64, 110.35, 20.86, 0.00, 0.00, 0.000, 0.000, 0.000, 14:48:43.111, 1627991323111
65, 158.56, -107.10, 0.00, 0.00, 0.000, 0.000, 0.000, 14:48:43.112, 1627991323112
66, 81.34, -152.65, 0.00, 0.00, 0.000, 0.000, 0.000, 14:48:43.112, 1627991323112
67, -0.69, -47.19, 0.00, 0.00, 0.000, 0.000, 0.000, 14:48:43.124, 1627991323124
68, 103.21, -7.42, 0.00, 0.00, 0.000, 0.000, 0.000, 14:48:43.124, 1627991323124
69, 172.43, -120.00, 0.00, 0.00, 0.000, 0.000, 0.000, 14:48:43.139, 1627991323139
70, 98.58, -151.01, 0.00, 0.00, 0.000, 0.000, 0.000, 14:48:43.139, 1627991323139
71, 38.09, -32.21, 0.00, 0.00, 0.000, 0.000, 0.000, 14:48:43.143, 1627991323143
72, 136.23, -7.89, 0.00, 0.00, 0.000, 0.000, 0.000, 14:48:43.143, 1627991323143
73, 193.07, -120.33, 0.00, 0.00, 0.000, 0.000, 0.000, 14:48:43.159, 1627991323159
74, 91.62, -178.90, 0.00, 0.00, 0.000, 0.000, 0.000, 14:48:43.159, 1627991323159
